"Piezo Voltage (V)";"Fine In 1 (V)";
77.018951;2.941345;
77.058128;2.940776;
77.097336;2.940291;
77.136551;2.939929;
77.175758;2.939668;
77.214958;2.939141;
77.254173;2.938839;
77.293381;2.938427;
77.332565;2.937973;
77.371765;2.937591;
77.410980;2.937202;
77.450188;2.936790;
77.489403;2.936264;
77.528603;2.935877;
77.567810;2.935416;
77.606987;2.934980;
77.646194;2.934525;
77.685410;2.934015;
77.724617;2.933568;
77.763832;2.933004;
77.803032;2.932477;
77.842247;2.932018;
77.881416;2.931526;
77.920631;2.931051;
77.959839;2.930545;
77.999054;2.930003;
78.038261;2.929542;
78.077461;2.929070;
78.116676;2.928601;
78.155846;2.928152;
78.195061;2.927732;
78.234268;2.927315;
78.273483;2.926850;
78.312691;2.926339;
78.351906;2.925974;
78.391106;2.925614;
78.430275;2.925170;
78.469490;2.924726;
78.508698;2.924357;
78.547913;2.923984;
78.587120;2.923615;
78.626335;2.923267;
78.665535;2.922917;
78.704712;2.922582;
78.743942;2.922246;
78.783127;2.921971;
78.822342;2.921657;
78.861549;2.921362;
78.900764;2.921137;
78.939964;2.920820;
78.979141;2.920583;
79.018349;2.920354;
79.057564;2.920069;
79.096771;2.919915;
79.135986;2.919723;
79.175194;2.919438;
79.214394;2.919239;
79.253593;2.919023;
79.292778;2.918741;
79.331993;2.918601;
79.371201;2.918408;
79.410416;2.918167;
79.449623;2.917957;
79.488838;2.917799;
79.528000;2.917495;
79.567215;2.917345;
79.606422;2.917158;
79.645630;2.916872;
79.684845;2.916561;
79.724052;2.916360;
79.763268;2.916108;
79.802429;2.915807;
79.841644;2.915514;
79.880852;2.915238;
79.920067;2.914931;
79.959274;2.914625;
79.998489;2.914264;
80.037697;2.913884;
80.076859;2.913496;
80.116074;2.913174;
80.155281;2.912808;
80.194496;2.912344;
80.233704;2.911942;
80.272919;2.911551;
80.312126;2.911057;
80.351303;2.910670;
80.390503;2.910157;
80.429710;2.909707;
80.468925;2.909149;
80.508133;2.908672;
80.547348;2.908133;
80.586555;2.907606;
80.625732;2.907128;
80.664948;2.906748;
80.704147;2.906065;
80.743355;2.905561;
80.782562;2.905023;
80.821777;2.904429;
80.860985;2.903953;
80.900162;2.903427;
80.939362;2.902985;
80.978577;2.902246;
81.017784;2.901731;
81.056999;2.901278;
81.096207;2.900729;
81.135422;2.900222;
81.174606;2.899719;
81.213791;2.899211;
81.253006;2.898834;
81.292213;2.898355;
81.331429;2.897937;
81.370636;2.897476;
81.409851;2.897001;
81.449020;2.896655;
81.488235;2.896226;
81.527435;2.895850;
81.566650;2.895479;
81.605858;2.895140;
81.645065;2.894832;
81.684280;2.894459;
81.723450;2.894153;
81.762672;2.893820;
81.801865;2.893541;
81.841080;2.893207;
81.880287;2.892990;
81.919502;2.892708;
81.958710;2.892486;
81.997879;2.892219;
82.037094;2.892043;
82.076294;2.891721;
82.115509;2.891576;
82.154716;2.891263;
82.193932;2.891077;
82.233139;2.890941;
82.272316;2.890626;
82.311523;2.890389;
82.350739;2.890191;
82.389938;2.889917;
82.429153;2.889688;
82.468361;2.889498;
82.507568;2.889175;
82.546745;2.888885;
82.585953;2.888678;
82.625168;2.888385;
82.664368;2.888093;
82.703583;2.887811;
82.742790;2.887465;
82.782005;2.887100;
82.821175;2.886729;
82.860382;2.886381;
82.899597;2.885950;
82.938797;2.885496;
82.978012;2.885089;
83.017220;2.884581;
83.056435;2.884229;
83.095619;2.883766;
83.134819;2.883166;
83.174026;2.882713;
83.213226;2.882138;
83.252441;2.881624;
83.291649;2.881100;
83.330864;2.880502;
83.370033;2.879938;
83.409248;2.879363;
83.448456;2.878728;
83.487671;2.878086;
83.526871;2.877514;
83.566086;2.876920;
83.605293;2.876301;
83.644463;2.875627;
83.683693;2.875021;
83.722885;2.874381;
83.762100;2.873798;
83.801300;2.873175;
83.840515;2.872582;
83.879723;2.871968;
83.918900;2.871341;
83.958107;2.870725;
83.997322;2.870036;
84.036530;2.869511;
84.075729;2.868845;
84.114944;2.868364;
84.154152;2.867733;
84.193329;2.867186;
84.232536;2.866568;
84.271751;2.866076;
84.310959;2.865460;
84.350174;2.864889;
84.389374;2.864411;
84.428589;2.863780;
84.467758;2.863255;
84.506966;2.862679;
84.546181;2.862049;
84.585388;2.861470;
84.624603;2.860947;
84.663803;2.860342;
84.703018;2.859751;
84.742188;2.859104;
84.781403;2.858483;
84.820610;2.857774;
84.859818;2.857113;
84.899033;2.856396;
84.938232;2.855683;
84.977448;2.854836;
85.016640;2.854065;
85.055832;2.853215;
85.095039;2.852325;
85.134254;2.851444;
85.173462;2.850375;
85.212662;2.849353;
85.251877;2.848295;
85.291046;2.847195;
85.330261;2.845970;
85.369469;2.844706;
85.408684;2.843396;
85.447891;2.841955;
85.487106;2.840497;
85.526306;2.839109;
85.565483;2.837561;
85.604713;2.835853;
85.643898;2.834228;
85.683113;2.832469;
85.722321;2.830711;
85.761536;2.828867;
85.800735;2.826847;
85.839912;2.824961;
85.879120;2.822980;
85.918335;2.820840;
85.957542;2.818789;
85.996758;2.816612;
86.035965;2.814412;
86.075165;2.812177;
86.114342;2.809935;
86.153549;2.807677;
86.192764;2.805345;
86.231972;2.803080;
86.271187;2.800725;
86.310394;2.798444;
86.349609;2.796102;
86.388771;2.793773;
86.427979;2.791474;
86.467194;2.789160;
86.506401;2.786829;
86.545616;2.784614;
86.584824;2.782314;
86.624039;2.780043;
86.663200;2.777838;
86.702415;2.775635;
86.741623;2.773479;
86.780838;2.771359;
86.820045;2.769275;
86.859261;2.767196;
86.898468;2.765122;
86.937645;2.763321;
86.976845;2.761189;
87.016052;2.759316;
87.055267;2.757505;
87.094475;2.755692;
87.133690;2.754005;
87.172897;2.752219;
87.212074;2.750645;
87.251274;2.749050;
87.290482;2.747546;
87.329697;2.746062;
87.368904;2.744583;
87.408119;2.743218;
87.447327;2.741828;
87.486504;2.740471;
87.525726;2.739250;
87.564919;2.738045;
87.604126;2.736884;
87.643333;2.735716;
87.682549;2.734721;
87.721756;2.733630;
87.760933;2.732612;
87.800133;2.731665;
87.839348;2.730729;
87.878555;2.729925;
87.917770;2.728998;
87.956978;2.728229;
87.996193;2.727302;
88.035370;2.726652;
88.074562;2.725899;
88.113777;2.725237;
88.152985;2.724591;
88.192200;2.723954;
88.231407;2.723329;
88.270622;2.722843;
88.309792;2.722260;
88.349007;2.721741;
88.388206;2.721253;
88.427422;2.720886;
88.466629;2.720435;
88.505836;2.720112;
88.545052;2.719738;
88.584221;2.719437;
88.623436;2.719123;
88.662636;2.718939;
88.701851;2.718708;
88.741058;2.718568;
88.780273;2.718435;
88.819481;2.718366;
88.858658;2.718414;
88.897865;2.718419;
88.937065;2.718484;
88.976280;2.718642;
89.015488;2.718847;
89.054703;2.719081;
89.093910;2.719322;
89.133087;2.719715;
89.172295;2.720050;
89.211510;2.720484;
89.250710;2.721017;
89.289917;2.721582;
89.329132;2.722304;
89.368340;2.723066;
89.407516;2.723737;
89.446739;2.724662;
89.485939;2.725597;
89.525139;2.726573;
89.564354;2.727566;
89.603561;2.728741;
89.642776;2.729871;
89.681946;2.731120;
89.721153;2.732459;
89.760368;2.733800;
89.799568;2.735309;
89.838783;2.736711;
89.877991;2.738150;
89.917206;2.739792;
89.956390;2.741274;
89.995590;2.742879;
90.034798;2.744465;
90.073997;2.746149;
90.113213;2.747775;
90.152420;2.749524;
90.191635;2.751192;
90.230804;2.752803;
90.270020;2.754490;
90.309227;2.756083;
90.348442;2.757685;
90.387650;2.759278;
90.426865;2.760944;
90.466064;2.762504;
90.505234;2.763987;
90.544449;2.765387;
90.583656;2.766787;
90.622871;2.768101;
90.662079;2.769375;
90.701294;2.770545;
90.740494;2.771745;
90.779671;2.772824;
90.818878;2.773779;
90.858093;2.774731;
90.897301;2.775561;
90.936508;2.776361;
90.975723;2.777025;
91.014923;2.777663;
91.054100;2.778210;
91.093307;2.778822;
91.132523;2.779244;
91.171730;2.779650;
91.210945;2.780009;
91.250153;2.780234;
91.289352;2.780516;
91.328529;2.780640;
91.367744;2.780751;
91.406952;2.780826;
91.446159;2.780881;
91.485374;2.780831;
91.524582;2.780838;
91.563797;2.780731;
91.602959;2.780606;
91.642174;2.780495;
91.681381;2.780359;
91.720589;2.780227;
91.759804;2.780057;
91.799011;2.779837;
91.838226;2.779638;
91.877411;2.779351;
91.916603;2.779164;
91.955811;2.778949;
91.995026;2.778625;
92.034233;2.778515;
92.073441;2.778095;
92.112656;2.777954;
92.151817;2.777654;
92.191032;2.777434;
92.230240;2.777220;
92.269455;2.776943;
92.308662;2.776706;
92.347878;2.776528;
92.387085;2.776318;
92.426262;2.776067;
92.465477;2.775807;
92.504669;2.775551;
92.543884;2.775413;
92.583092;2.775243;
92.622307;2.775029;
92.661514;2.774818;
92.700691;2.774628;
92.739891;2.774503;
92.779106;2.774232;
92.818314;2.773998;
92.857529;2.773862;
92.896736;2.773588;
92.935944;2.773378;
92.975121;2.773064;
93.014320;2.772840;
93.053535;2.772551;
93.092743;2.772348;
93.131958;2.771956;
93.171165;2.771661;
93.210381;2.771320;
93.249550;2.770974;
93.288765;2.770604;
93.327965;2.770215;
93.367172;2.769777;
93.406387;2.769310;
93.445595;2.768907;
93.484810;2.768402;
93.523979;2.767867;
93.563194;2.767333;
93.602394;2.766723;
93.641609;2.766198;
93.680817;2.765529;
93.720024;2.764866;
93.759239;2.764320;
93.798424;2.763593;
93.837624;2.762860;
93.876823;2.762208;
93.916039;2.761478;
93.955246;2.760685;
93.994461;2.760001;
94.033669;2.759225;
94.072845;2.758591;
94.112053;2.757780;
94.151253;2.756939;
94.190468;2.756184;
94.229675;2.755455;
94.268890;2.754688;
94.308098;2.753879;
94.347275;2.753095;
94.386490;2.752352;
94.425697;2.751588;
94.464897;2.750815;
94.504105;2.750072;
94.543320;2.749434;
94.582527;2.748705;
94.621704;2.747933;
94.660912;2.747312;
94.700127;2.746588;
94.739326;2.745896;
94.778542;2.745317;
94.817749;2.744655;
94.856964;2.744069;
94.896133;2.743474;
94.935341;2.742950;
94.974556;2.742396;
95.013756;2.741816;
95.052971;2.741357;
95.092178;2.740837;
95.131393;2.740321;
95.170563;2.739926;
95.209778;2.739351;
95.248985;2.738892;
95.288200;2.738415;
95.327400;2.737972;
95.366608;2.737551;
95.405823;2.737052;
95.444992;2.736595;
95.484207;2.736177;
95.523415;2.735723;
95.562630;2.735252;
95.601830;2.734719;
95.641045;2.734215;
95.680252;2.733714;
95.719437;2.733191;
95.758636;2.732686;
95.797844;2.732139;
95.837059;2.731558;
95.876259;2.731056;
95.915474;2.730408;
95.954681;2.729771;
95.993858;2.729177;
96.033066;2.728563;
96.072281;2.727928;
96.111488;2.727272;
96.150688;2.726709;
96.189903;2.726024;
96.229111;2.725441;
96.268288;2.724705;
96.307510;2.724071;
96.346710;2.723417;
96.385918;2.722728;
96.425133;2.722092;
96.464333;2.721381;
96.503540;2.720754;
96.542717;2.720093;
96.581924;2.719365;
96.621140;2.718884;
96.660347;2.718230;
96.699562;2.717686;
96.738762;2.717005;
96.777977;2.716453;
96.817146;2.715942;
96.856361;2.715405;
96.895569;2.714878;
96.941574;2.714429;
96.973991;2.713922;
97.013191;2.713416;
97.052406;2.713024;
97.091576;2.712571;
97.130791;2.712205;
97.169998;2.711813;
97.209213;2.711361;
97.248421;2.711058;
97.287636;2.710768;
97.326836;2.710484;
97.366005;2.710079;
97.405220;2.709865;
97.444427;2.709525;
97.483643;2.709315;
97.522850;2.709092;
97.562065;2.708860;
97.601265;2.708687;
97.640465;2.708463;
97.679649;2.708229;
97.718857;2.708109;
97.758072;2.707827;
97.797279;2.707696;
97.836494;2.707355;
97.875694;2.707208;
97.914871;2.706968;
97.954079;2.706782;
97.993294;2.706512;
98.032501;2.706319;
98.071716;2.706141;
98.110924;2.705852;
98.150124;2.705590;
98.189301;2.705339;
98.228531;2.705017;
98.267723;2.704659;
98.306931;2.704378;
98.346146;2.704001;
98.385353;2.703627;
98.424568;2.703284;
98.463730;2.702939;
98.502945;2.702526;
98.542152;2.702124;
98.581360;2.701693;
98.620575;2.701293;
98.659782;2.700854;
98.698997;2.700273;
98.738159;2.699829;
98.777374;2.699355;
98.816582;2.698937;
98.855797;2.698473;
98.895004;2.697987;
98.934212;2.697565;
98.973427;2.697068;
99.012589;2.696693;
99.051804;2.696140;
99.091011;2.695802;
99.130226;2.695418;
99.169434;2.694902;
99.208649;2.694611;
99.247856;2.694220;
99.287033;2.693907;
99.326233;2.693486;
99.365440;2.693232;
99.404655;2.692943;
99.443863;2.692672;
99.483078;2.692531;
99.522285;2.692209;
99.561470;2.692061;
99.600662;2.691880;
99.639877;2.691782;
99.679085;2.691612;
99.718300;2.691561;
99.757507;2.691446;
99.796715;2.691412;
99.835892;2.691363;
99.875092;2.691439;
99.914307;2.691366;
99.953514;2.691451;
99.992729;2.691412;
100.031937;2.691483;
100.071152;2.691513;
100.110321;2.691581;
100.149544;2.691475;
100.188736;2.691577;
100.227943;2.691620;
100.267159;2.691673;
100.306366;2.691671;
100.345581;2.691691;
100.384750;2.691666;
100.423965;2.691591;
100.463165;2.691492;
100.502380;2.691455;
100.541588;2.691323;
100.580795;2.691179;
100.620010;2.690919;
100.659187;2.690779;
100.698395;2.690526;
100.737595;2.690238;
100.776810;2.690068;
100.816017;2.689717;
100.855232;2.689357;
100.894440;2.689058;
100.933617;2.688579;
100.972824;2.688200;
101.012024;2.687717;
101.051239;2.687336;
101.090446;2.686788;
101.129662;2.686385;
101.168869;2.685812;
101.208046;2.685344;
101.247253;2.684793;
101.286469;2.684155;
101.325668;2.683751;
101.364876;2.683184;
101.404091;2.682642;
101.443298;2.682090;
101.482475;2.681511;
101.521683;2.681039;
101.560898;2.680428;
101.600098;2.679939;
101.639313;2.679446;
101.678520;2.678932;
101.717735;2.678385;
101.756905;2.677948;
101.796112;2.677400;
101.835327;2.676975;
101.874527;2.676509;
101.913742;2.676063;
101.952950;2.675648;
101.992165;2.675317;
102.031334;2.674958;
102.070564;2.674648;
102.109756;2.674332;
102.148956;2.673994;
102.188171;2.673730;
102.227379;2.673435;
102.266594;2.673237;
102.305763;2.672961;
102.344978;2.672757;
102.384186;2.672526;
102.423401;2.672308;
102.462601;2.672084;
102.501816;2.671924;
102.541023;2.671761;
102.580208;2.671543;
102.619408;2.671359;
102.658615;2.671179;
102.697830;2.671005;
102.737030;2.670771;
102.776245;2.670671;
102.815453;2.670398;
102.854630;2.670125;
102.893837;2.669806;
102.933052;2.669571;
102.972260;2.669282;
103.011459;2.669047;
103.050674;2.668688;
103.089882;2.668383;
103.129059;2.668023;
103.168266;2.667654;
103.207481;2.667333;
103.246689;2.666934;
103.285904;2.666487;
103.325104;2.666018;
103.364311;2.665555;
103.403488;2.665026;
103.442696;2.664518;
103.481911;2.664078;
103.521118;2.663541;
103.560333;2.662997;
103.599533;2.662476;
103.638748;2.661899;
103.677917;2.661259;
103.717133;2.660677;
103.756340;2.660121;
103.795547;2.659641;
103.834763;2.659011;
103.873962;2.658512;
103.913177;2.657970;
103.952347;2.657400;
103.991570;2.656841;
104.030769;2.656265;
104.069984;2.655747;
104.109192;2.655312;
104.148407;2.654846;
104.187607;2.654336;
104.226776;2.653913;
104.265991;2.653524;
104.305199;2.653053;
104.344414;2.652696;
104.383621;2.652396;
104.422836;2.652024;
104.462036;2.651752;
104.501236;2.651390;
104.540421;2.651124;
104.579628;2.650838;
104.618843;2.650703;
104.658051;2.650546;
104.697266;2.650292;
104.736465;2.650062;
104.775642;2.649908;
104.814850;2.649679;
104.854065;2.649563;
104.893272;2.649371;
104.932487;2.649256;
104.971695;2.649039;
105.010895;2.648841;
105.050072;2.648766;
105.089287;2.648599;
105.128494;2.648340;
105.167702;2.648217;
105.206917;2.648001;
105.246124;2.647723;
105.285339;2.647607;
105.324501;2.647290;
105.363716;2.647000;
105.402924;2.646773;
105.442131;2.646430;
105.481346;2.646098;
105.520554;2.645753;
105.559769;2.645334;
105.598930;2.644967;
105.638145;2.644588;
105.677353;2.644072;
105.716568;2.643598;
105.755775;2.643170;
105.794983;2.642683;
105.834198;2.642215;
105.873360;2.641677;
105.912575;2.641086;
105.951782;2.640589;
105.990997;2.640062;
106.030205;2.639470;
106.069420;2.638873;
106.108627;2.638339;
106.147804;2.637755;
106.187004;2.637153;
106.226212;2.636599;
106.265427;2.636035;
106.304634;2.635541;
106.343849;2.634972;
106.383057;2.634511;
106.422249;2.633996;
106.461433;2.633416;
106.500648;2.632945;
106.539856;2.632527;
106.579071;2.632045;
106.618279;2.631660;
106.657486;2.631285;
106.696663;2.630900;
106.735863;2.630537;
106.775078;2.630174;
106.814285;2.629894;
106.853500;2.629564;
106.892708;2.629308;
106.931923;2.629020;
106.971092;2.628821;
107.010315;2.628680;
107.049507;2.628455;
107.088715;2.628276;
107.127930;2.628092;
107.167137;2.627940;
107.206352;2.627765;
107.245522;2.627618;
107.284737;2.627449;
107.323936;2.627323;
107.363152;2.627208;
107.402359;2.627021;
107.441566;2.626878;
107.480782;2.626733;
107.519951;2.626554;
107.559166;2.626283;
107.598366;2.625981;
107.637581;2.625803;
107.676788;2.625481;
107.716003;2.625226;
107.755211;2.625000;
107.794380;2.624564;
107.833595;2.624365;
107.872795;2.623962;
107.912010;2.623536;
107.951218;2.623059;
107.990433;2.622681;
108.029640;2.622163;
108.068817;2.621697;
108.108025;2.621178;
108.147240;2.620706;
108.186440;2.620160;
108.225647;2.619603;
108.264862;2.619150;
108.304070;2.618508;
108.343262;2.617924;
108.382454;2.617286;
108.421669;2.616776;
108.460869;2.616177;
108.500084;2.615634;
108.539291;2.615044;
108.578506;2.614521;
108.617676;2.613873;
108.656883;2.613350;
108.696098;2.612788;
108.735298;2.612304;
108.774513;2.611805;
108.813721;2.611240;
108.852936;2.610768;
108.892105;2.610280;
108.931320;2.609814;
108.970528;2.609369;
109.009727;2.609001;
109.048943;2.608587;
109.088150;2.608215;
109.127365;2.607870;
109.166534;2.607588;
109.205750;2.607213;
109.244957;2.606996;
109.284172;2.606681;
109.323372;2.606457;
109.362587;2.606243;
109.401794;2.606032;
109.440964;2.605768;
109.480179;2.605579;
109.519386;2.605358;
109.558601;2.605144;
109.597801;2.604979;
109.637016;2.604790;
109.676224;2.604643;
109.715401;2.604383;
109.754608;2.604240;
109.793823;2.603989;
109.833031;2.603726;
109.872231;2.603523;
109.911446;2.603304;
109.950653;2.602957;
109.989830;2.602724;
110.029037;2.602383;
110.068253;2.602065;
110.107460;2.601718;
110.146675;2.601346;
110.185875;2.600905;
110.225082;2.600467;
110.264267;2.600060;
110.303467;2.599577;
110.342682;2.599031;
110.381889;2.598607;
110.421104;2.598035;
110.460312;2.597461;
110.499527;2.596932;
110.538689;2.596327;
110.577904;2.595727;
110.617111;2.595141;
110.656319;2.594528;
110.695534;2.593858;
110.734741;2.593189;
110.773956;2.592583;
110.813118;2.592035;
110.852333;2.591294;
110.891541;2.590744;
110.930756;2.590139;
110.969963;2.589513;
111.009178;2.588885;
111.048386;2.588245;
111.087547;2.587711;
111.126762;2.587171;
111.165970;2.586553;
111.205185;2.586056;
111.244392;2.585520;
111.283607;2.585047;
111.322815;2.584578;
111.361992;2.584138;
111.401192;2.583722;
111.440407;2.583377;
111.479614;2.582964;
111.518822;2.582653;
111.558037;2.582246;
111.597244;2.581920;
111.636421;2.581577;
111.675621;2.581268;
111.714836;2.580982;
111.754044;2.580723;
111.793259;2.580446;
111.832466;2.580129;
111.871674;2.579863;
111.910851;2.579673;
111.950050;2.579437;
111.989265;2.579173;
112.028473;2.578869;
112.067688;2.578672;
112.106895;2.578367;
112.146111;2.578047;
112.185287;2.577771;
112.224495;2.577471;
112.263695;2.577135;
112.302902;2.576758;
112.342117;2.576429;
112.381325;2.576045;
112.420540;2.575612;
112.459709;2.575191;
112.498924;2.574760;
112.538124;2.574356;
112.577339;2.573879;
112.616547;2.573315;
112.655754;2.572749;
112.694969;2.572214;
112.734138;2.571658;
112.773354;2.571002;
112.812553;2.570487;
112.851768;2.569893;
112.890976;2.569167;
112.930191;2.568587;
112.969398;2.567901;
113.008575;2.567209;
113.047783;2.566582;
113.086983;2.565852;
113.126198;2.565247;
113.165405;2.564507;
113.204620;2.563907;
113.243828;2.563118;
113.283012;2.562503;
113.322212;2.561842;
113.361427;2.561174;
113.400627;2.560537;
113.439835;2.559870;
113.479050;2.559237;
113.518257;2.558605;
113.557434;2.558038;
113.596642;2.557477;
113.635857;2.556976;
113.675056;2.556464;
113.714272;2.555954;
113.753479;2.555487;
113.792694;2.555008;
113.831863;2.554651;
113.871071;2.554140;
113.910286;2.553791;
113.949486;2.553260;
113.988701;2.553031;
114.027908;2.552681;
114.067123;2.552270;
114.106293;2.551926;
114.145508;2.551613;
114.184715;2.551296;
114.223930;2.550948;
114.263130;2.550698;
114.302338;2.550446;
114.341553;2.550142;
114.380722;2.549792;
114.419937;2.549477;
114.459145;2.549146;
114.498360;2.548851;
114.537560;2.548487;
114.576775;2.548127;
114.615982;2.547765;
114.655151;2.547371;
114.694366;2.546989;
114.733574;2.546556;
114.772789;2.546145;
114.811989;2.545604;
114.851204;2.545198;
114.890411;2.544636;
114.929588;2.544169;
114.968796;2.543599;
115.008011;2.542978;
115.047218;2.542373;
115.086418;2.541764;
115.125633;2.541154;
115.164841;2.540509;
115.204041;2.539770;
115.243225;2.539083;
115.282440;2.538514;
115.321648;2.537755;
115.360863;2.537039;
115.400063;2.536310;
115.439278;2.535586;
115.478447;2.534895;
115.517654;2.534189;
115.556870;2.533421;
115.596077;2.532690;
115.635292;2.532001;
115.674492;2.531303;
115.713707;2.530634;
115.752876;2.529974;
115.792091;2.529334;
115.831299;2.528688;
115.870514;2.528057;
115.909721;2.527460;
115.948921;2.526916;
115.988136;2.526295;
116.027306;2.525836;
116.066521;2.525295;
116.105728;2.524750;
116.144943;2.524339;
116.184151;2.523835;
116.223366;2.523382;
116.262566;2.522975;
116.301735;2.522585;
116.340950;2.522172;
116.380157;2.521841;
116.419373;2.521465;
116.458580;2.521086;
116.497795;2.520822;
116.536995;2.520437;
116.576172;2.520133;
116.615379;2.519821;
116.654594;2.519430;
116.693802;2.519175;
116.733009;2.518847;
116.772224;2.518542;
116.811424;2.518183;
116.850601;2.517847;
116.889809;2.517501;
