"Piezo Voltage (V)";"Fine In 1 (V)";
77.018875;2.955961;
77.058090;2.955239;
77.097298;2.954794;
77.136513;2.954590;
77.175697;2.954333;
77.214882;2.953930;
77.254097;2.953833;
77.293304;2.953679;
77.332520;2.953352;
77.371727;2.953183;
77.410942;2.953018;
77.450111;2.952764;
77.489326;2.952540;
77.528526;2.952250;
77.567734;2.951939;
77.606949;2.951701;
77.646156;2.951509;
77.685371;2.951175;
77.724541;2.950845;
77.763771;2.950511;
77.802956;2.950179;
77.842171;2.949833;
77.881378;2.949519;
77.920593;2.949051;
77.959801;2.948624;
77.998970;2.948286;
78.038185;2.947950;
78.077385;2.947553;
78.116600;2.947118;
78.155807;2.946658;
78.195023;2.946277;
78.234230;2.945798;
78.273407;2.945333;
78.312614;2.944902;
78.351830;2.944471;
78.391029;2.944039;
78.430237;2.943547;
78.469452;2.943095;
78.508659;2.942609;
78.547836;2.942158;
78.587044;2.941731;
78.626259;2.941296;
78.665459;2.940872;
78.704674;2.940413;
78.743881;2.940006;
78.783089;2.939564;
78.822266;2.939084;
78.861473;2.938725;
78.900688;2.938252;
78.939888;2.937825;
78.979103;2.937435;
79.018311;2.937097;
79.057526;2.936707;
79.096710;2.936400;
79.135910;2.936068;
79.175117;2.935743;
79.214317;2.935449;
79.253532;2.935113;
79.292740;2.934853;
79.331955;2.934541;
79.371124;2.934298;
79.410339;2.934077;
79.449547;2.933772;
79.488762;2.933563;
79.527962;2.933402;
79.567177;2.933181;
79.606384;2.932951;
79.645554;2.932879;
79.684784;2.932633;
79.723976;2.932427;
79.763191;2.932281;
79.802391;2.932125;
79.841606;2.932016;
79.880814;2.931853;
79.919991;2.931691;
79.959198;2.931466;
79.998405;2.931330;
80.037621;2.931203;
80.076820;2.931043;
80.116035;2.930878;
80.155243;2.930665;
80.194420;2.930444;
80.233627;2.930299;
80.272842;2.930158;
80.312050;2.929939;
80.351265;2.929711;
80.390465;2.929492;
80.429672;2.929243;
80.468849;2.929007;
80.508057;2.928709;
80.547272;2.928468;
80.586479;2.928163;
80.625694;2.927856;
80.664894;2.927559;
80.704109;2.927209;
80.743279;2.926938;
80.782494;2.926565;
80.821701;2.926142;
80.860909;2.925737;
80.900124;2.925349;
80.939323;2.924988;
80.978539;2.924540;
81.017715;2.924019;
81.056923;2.923668;
81.096130;2.923185;
81.135345;2.922720;
81.174553;2.922237;
81.213753;2.921756;
81.252968;2.921256;
81.292137;2.920761;
81.331352;2.920291;
81.370560;2.919797;
81.409775;2.919327;
81.448982;2.918917;
81.488197;2.918346;
81.527397;2.917911;
81.566574;2.917364;
81.605782;2.916975;
81.644989;2.916448;
81.684204;2.915952;
81.723412;2.915558;
81.762627;2.915070;
81.801826;2.914728;
81.841003;2.914267;
81.880211;2.913855;
81.919426;2.913432;
81.958633;2.913117;
81.997841;2.912739;
82.037056;2.912369;
82.076256;2.912033;
82.115448;2.911728;
82.154640;2.911346;
82.193855;2.911085;
82.233063;2.910778;
82.272278;2.910527;
82.311485;2.910271;
82.350700;2.910017;
82.389862;2.909773;
82.429070;2.909603;
82.468285;2.909413;
82.507492;2.909213;
82.546707;2.908972;
82.585915;2.908811;
82.625130;2.908628;
82.664291;2.908395;
82.703506;2.908288;
82.742714;2.908146;
82.781929;2.907962;
82.821136;2.907806;
82.860344;2.907640;
82.899559;2.907525;
82.938721;2.907334;
82.977936;2.907108;
83.017143;2.906981;
83.056358;2.906787;
83.095566;2.906561;
83.134781;2.906344;
83.173988;2.906101;
83.213150;2.905864;
83.252365;2.905561;
83.291573;2.905381;
83.330788;2.905075;
83.369995;2.904715;
83.409210;2.904437;
83.448418;2.904059;
83.487595;2.903805;
83.526794;2.903406;
83.566010;2.902998;
83.605217;2.902632;
83.644424;2.902242;
83.683640;2.901801;
83.722847;2.901363;
83.762024;2.900870;
83.801224;2.900331;
83.840439;2.899941;
83.879646;2.899431;
83.918861;2.898811;
83.958069;2.898398;
83.997284;2.897912;
84.036469;2.897382;
84.075653;2.896840;
84.114868;2.896277;
84.154076;2.895742;
84.193291;2.895199;
84.232498;2.894593;
84.271713;2.894077;
84.310883;2.893553;
84.350098;2.893026;
84.389297;2.892462;
84.428505;2.891951;
84.467720;2.891424;
84.506927;2.890857;
84.546143;2.890397;
84.585312;2.889867;
84.624527;2.889319;
84.663727;2.888843;
84.702942;2.888328;
84.742149;2.887847;
84.781364;2.887412;
84.820572;2.886909;
84.859741;2.886426;
84.898956;2.885985;
84.938156;2.885539;
84.977371;2.885081;
85.016579;2.884622;
85.055794;2.884206;
85.095001;2.883761;
85.134178;2.883332;
85.173386;2.882924;
85.212601;2.882452;
85.251801;2.882032;
85.291008;2.881573;
85.330223;2.881149;
85.369431;2.880730;
85.408607;2.880295;
85.447815;2.879882;
85.487030;2.879445;
85.526230;2.879047;
85.565445;2.878503;
85.604652;2.877993;
85.643860;2.877604;
85.683037;2.877094;
85.722244;2.876612;
85.761459;2.876046;
85.800659;2.875490;
85.839874;2.875019;
85.879082;2.874372;
85.918297;2.873803;
85.957481;2.873264;
85.996681;2.872673;
86.035889;2.872044;
86.075089;2.871419;
86.114304;2.870863;
86.153511;2.870156;
86.192726;2.869440;
86.231895;2.868780;
86.271111;2.868091;
86.310318;2.867428;
86.349533;2.866707;
86.388733;2.866012;
86.427948;2.865202;
86.467155;2.864563;
86.506325;2.863883;
86.545540;2.863173;
86.584747;2.862529;
86.623962;2.861787;
86.663162;2.861028;
86.702377;2.860415;
86.741585;2.859638;
86.780762;2.858891;
86.819969;2.858261;
86.859177;2.857626;
86.898392;2.856974;
86.937592;2.856331;
86.976807;2.855649;
87.016014;2.854961;
87.055191;2.854310;
87.094398;2.853714;
87.133614;2.853090;
87.172821;2.852464;
87.212036;2.851986;
87.251236;2.851427;
87.290443;2.850854;
87.329620;2.850356;
87.368828;2.849852;
87.408043;2.849297;
87.447250;2.848812;
87.486465;2.848436;
87.525665;2.847983;
87.564880;2.847634;
87.604050;2.847217;
87.643265;2.846848;
87.682472;2.846519;
87.721680;2.846198;
87.760895;2.845861;
87.800095;2.845571;
87.839310;2.845249;
87.878502;2.844939;
87.917694;2.844641;
87.956902;2.844367;
87.996117;2.844140;
88.035324;2.843968;
88.074524;2.843751;
88.113739;2.843502;
88.152908;2.843181;
88.192123;2.842954;
88.231331;2.842769;
88.270546;2.842525;
88.309753;2.842195;
88.348969;2.841954;
88.388168;2.841718;
88.427345;2.841411;
88.466553;2.841093;
88.505760;2.840746;
88.544975;2.840386;
88.584183;2.839991;
88.623398;2.839632;
88.662598;2.839183;
88.701775;2.838818;
88.740982;2.838273;
88.780197;2.837788;
88.819405;2.837277;
88.858612;2.836713;
88.897827;2.836080;
88.937027;2.835494;
88.976204;2.834839;
89.015411;2.834144;
89.054626;2.833483;
89.093834;2.832761;
89.133049;2.832071;
89.172256;2.831310;
89.211472;2.830546;
89.250633;2.829828;
89.289841;2.828910;
89.329056;2.828090;
89.368263;2.827245;
89.407478;2.826430;
89.446686;2.825571;
89.485901;2.824688;
89.525063;2.823821;
89.564278;2.823060;
89.603485;2.822141;
89.642700;2.821365;
89.681908;2.820510;
89.721115;2.819671;
89.760330;2.818983;
89.799515;2.818176;
89.838707;2.817349;
89.877914;2.816648;
89.917130;2.815937;
89.956337;2.815199;
89.995552;2.814670;
90.034760;2.813998;
90.073921;2.813341;
90.113136;2.812842;
90.152344;2.812310;
90.191559;2.811802;
90.230766;2.811307;
90.269981;2.810900;
90.309189;2.810477;
90.348366;2.810093;
90.387573;2.809741;
90.426788;2.809400;
90.465988;2.809170;
90.505196;2.808987;
90.544411;2.808801;
90.583618;2.808567;
90.622795;2.808430;
90.662003;2.808319;
90.701218;2.808167;
90.740417;2.808002;
90.779633;2.807979;
90.818840;2.807807;
90.858055;2.807743;
90.897224;2.807695;
90.936432;2.807675;
90.975647;2.807616;
91.014847;2.807574;
91.054062;2.807616;
91.093269;2.807587;
91.132484;2.807585;
91.171654;2.807544;
91.210869;2.807506;
91.250076;2.807527;
91.289276;2.807509;
91.328491;2.807476;
91.367699;2.807532;
91.406914;2.807490;
91.446083;2.807416;
91.485298;2.807420;
91.524506;2.807473;
91.563721;2.807380;
91.602921;2.807212;
91.642136;2.807190;
91.681343;2.807122;
91.720528;2.807011;
91.759727;2.806860;
91.798935;2.806732;
91.838150;2.806589;
91.877350;2.806509;
91.916565;2.806328;
91.955772;2.806223;
91.994949;2.806034;
92.034157;2.805876;
92.073372;2.805654;
92.112579;2.805507;
92.151779;2.805321;
92.190994;2.805055;
92.230202;2.804797;
92.269379;2.804633;
92.308586;2.804411;
92.347801;2.804187;
92.387009;2.803959;
92.426224;2.803767;
92.465424;2.803494;
92.504631;2.803226;
92.543808;2.802869;
92.583015;2.802738;
92.622231;2.802467;
92.661438;2.802161;
92.700653;2.801859;
92.739853;2.801631;
92.779068;2.801406;
92.818237;2.801056;
92.857452;2.800802;
92.896660;2.800574;
92.935867;2.800323;
92.975082;2.799995;
93.014282;2.799665;
93.053497;2.799409;
93.092667;2.799141;
93.131882;2.798838;
93.171089;2.798497;
93.210304;2.798141;
93.249512;2.797908;
93.288712;2.797482;
93.327927;2.797079;
93.367096;2.796745;
93.406311;2.796296;
93.445518;2.795825;
93.484734;2.795401;
93.523941;2.794930;
93.563156;2.794351;
93.602318;2.793830;
93.641548;2.793252;
93.680740;2.792636;
93.719948;2.791951;
93.759163;2.791284;
93.798370;2.790620;
93.837585;2.789843;
93.876747;2.788995;
93.915962;2.788090;
93.955170;2.787230;
93.994385;2.786223;
94.033592;2.785316;
94.072807;2.784271;
94.112015;2.783112;
94.151199;2.782020;
94.190392;2.780781;
94.229599;2.779498;
94.268814;2.778252;
94.308022;2.776829;
94.347237;2.775458;
94.386444;2.774032;
94.425621;2.772429;
94.464821;2.770875;
94.504028;2.769296;
94.543243;2.767625;
94.582451;2.765854;
94.621666;2.764060;
94.660873;2.762253;
94.700050;2.760318;
94.739265;2.758388;
94.778465;2.756341;
94.817673;2.754225;
94.856888;2.752112;
94.896095;2.749882;
94.935303;2.747584;
94.974480;2.745243;
95.013680;2.742781;
95.052895;2.740274;
95.092102;2.737671;
95.131317;2.735048;
95.170525;2.732274;
95.209740;2.729470;
95.248909;2.726519;
95.288124;2.723388;
95.327324;2.720273;
95.366531;2.717042;
95.405746;2.713683;
95.444954;2.710268;
95.484169;2.706652;
95.523338;2.703016;
95.562553;2.699175;
95.601753;2.695212;
95.640968;2.691185;
95.680176;2.686960;
95.719383;2.682775;
95.758598;2.678340;
95.797768;2.673788;
95.836983;2.669178;
95.876183;2.664478;
95.915398;2.659693;
95.954605;2.654752;
95.993820;2.649817;
96.033028;2.644725;
96.072220;2.639620;
96.111412;2.634583;
96.150612;2.629346;
96.189827;2.624171;
96.229034;2.619055;
96.268250;2.613806;
96.307457;2.608539;
96.346634;2.603278;
96.385841;2.598098;
96.425056;2.592901;
96.464256;2.587681;
96.503471;2.582681;
96.542679;2.577663;
96.581886;2.572737;
96.621063;2.567943;
96.660286;2.563085;
96.699486;2.558340;
96.738686;2.553860;
96.777901;2.549474;
96.817108;2.545159;
96.856323;2.540956;
96.895493;2.536899;
96.941574;2.532982;
96.973915;2.529100;
97.013115;2.525486;
97.052330;2.522185;
97.091537;2.518915;
97.130753;2.515647;
97.169922;2.512587;
97.209137;2.509767;
97.248344;2.507013;
97.287560;2.504441;
97.326759;2.501979;
97.365967;2.499727;
97.405182;2.497637;
97.444351;2.495618;
97.483566;2.493882;
97.522774;2.492211;
97.561989;2.490747;
97.601189;2.489385;
97.640404;2.488189;
97.679611;2.487196;
97.718788;2.486278;
97.757996;2.485572;
97.797203;2.484873;
97.836418;2.484523;
97.875618;2.484214;
97.914833;2.484073;
97.954041;2.484072;
97.993240;2.484149;
98.032425;2.484343;
98.071640;2.484774;
98.110847;2.485339;
98.150047;2.485999;
98.189262;2.486762;
98.228470;2.487720;
98.267647;2.488693;
98.306854;2.489962;
98.346069;2.491263;
98.385277;2.492726;
98.424492;2.494330;
98.463692;2.496047;
98.502907;2.497895;
98.542076;2.499707;
98.581299;2.501746;
98.620499;2.503846;
98.659706;2.505974;
98.698921;2.508352;
98.738121;2.510746;
98.777336;2.513283;
98.816505;2.515861;
98.855721;2.518489;
98.894928;2.521328;
98.934135;2.524236;
98.973351;2.527135;
99.012550;2.530174;
99.051765;2.533261;
99.090935;2.536605;
99.130150;2.539893;
99.169357;2.543215;
99.208572;2.546626;
99.247780;2.550086;
99.286995;2.553634;
99.326195;2.557264;
99.365364;2.560815;
99.404579;2.564523;
99.443787;2.568177;
99.483002;2.572014;
99.522209;2.575767;
99.561424;2.579606;
99.600624;2.583583;
99.639801;2.587543;
99.679008;2.591524;
99.718224;2.595514;
99.757431;2.599570;
99.796638;2.603709;
99.835854;2.607774;
99.875053;2.611813;
99.914246;2.615708;
99.953438;2.619677;
99.992653;2.623770;
100.031860;2.627625;
100.071075;2.631545;
100.110283;2.635418;
100.149483;2.639134;
100.188660;2.642941;
100.227867;2.646550;
100.267082;2.650125;
100.306290;2.653641;
100.345505;2.657165;
100.384712;2.660439;
100.423927;2.663568;
100.463089;2.666697;
100.502327;2.669654;
100.541512;2.672514;
100.580719;2.675298;
100.619934;2.677800;
100.659142;2.680337;
100.698357;2.682762;
100.737518;2.684895;
100.776733;2.687040;
100.815941;2.688985;
100.855156;2.690840;
100.894363;2.692506;
100.933578;2.694090;
100.972786;2.695587;
101.011963;2.696868;
101.051163;2.698105;
101.090370;2.699169;
101.129585;2.700162;
101.168793;2.701023;
101.208008;2.701859;
101.247215;2.702490;
101.286392;2.703034;
101.325592;2.703478;
101.364799;2.703869;
101.404015;2.704217;
101.443222;2.704494;
101.482437;2.704690;
101.521645;2.704722;
101.560822;2.704772;
101.600021;2.704713;
101.639236;2.704709;
101.678444;2.704590;
101.717659;2.704460;
101.756866;2.704288;
101.796074;2.704101;
101.835251;2.703838;
101.874451;2.703604;
101.913666;2.703299;
101.952873;2.702972;
101.992088;2.702721;
102.031296;2.702361;
102.070511;2.702065;
102.109680;2.701717;
102.148895;2.701358;
102.188095;2.701085;
102.227303;2.700814;
102.266518;2.700429;
102.305725;2.700150;
102.344940;2.699836;
102.384109;2.699515;
102.423340;2.699259;
102.462524;2.699118;
102.501740;2.698856;
102.540947;2.698617;
102.580154;2.698462;
102.619370;2.698231;
102.658539;2.698076;
102.697754;2.697978;
102.736954;2.697827;
102.776169;2.697626;
102.815376;2.697626;
102.854591;2.697472;
102.893799;2.697348;
102.932983;2.697265;
102.972183;2.697101;
103.011383;2.697078;
103.050598;2.696996;
103.089806;2.696961;
103.129021;2.696854;
103.168228;2.696806;
103.207405;2.696662;
103.246613;2.696539;
103.285828;2.696368;
103.325027;2.696196;
103.364243;2.696047;
103.403450;2.695840;
103.442657;2.695646;
103.481834;2.695406;
103.521042;2.695224;
103.560257;2.694919;
103.599457;2.694583;
103.638672;2.694335;
103.677879;2.694000;
103.717094;2.693655;
103.756264;2.693300;
103.795471;2.692882;
103.834686;2.692424;
103.873886;2.691941;
103.913101;2.691532;
103.952309;2.691059;
103.991524;2.690546;
104.030693;2.690060;
104.069908;2.689586;
104.109116;2.689019;
104.148331;2.688519;
104.187531;2.687988;
104.226738;2.687446;
104.265953;2.686994;
104.305122;2.686407;
104.344345;2.685888;
104.383545;2.685324;
104.422760;2.684844;
104.461960;2.684291;
104.501175;2.683792;
104.540382;2.683348;
104.579559;2.682864;
104.618767;2.682512;
104.657974;2.681982;
104.697189;2.681592;
104.736389;2.681177;
104.775604;2.680804;
104.814812;2.680437;
104.854012;2.680110;
104.893196;2.679801;
104.932411;2.679529;
104.971619;2.679268;
105.010818;2.678976;
105.050034;2.678790;
105.089241;2.678507;
105.128418;2.678293;
105.167625;2.678081;
105.206841;2.677869;
105.246048;2.677699;
105.285263;2.677598;
105.324463;2.677408;
105.363678;2.677198;
105.402847;2.677089;
105.442062;2.676956;
105.481270;2.676855;
105.520477;2.676664;
105.559692;2.676478;
105.598892;2.676327;
105.638107;2.676094;
105.677277;2.675844;
105.716492;2.675728;
105.755699;2.675473;
105.794907;2.675227;
105.834122;2.674955;
105.873322;2.674669;
105.912537;2.674438;
105.951706;2.674113;
105.990921;2.673792;
106.030128;2.673411;
106.069344;2.673057;
106.108551;2.672556;
106.147766;2.672179;
106.186966;2.671623;
106.226135;2.671217;
106.265358;2.670751;
106.304558;2.670241;
106.343773;2.669728;
106.382980;2.669185;
106.422195;2.668664;
106.461395;2.668052;
106.500572;2.667468;
106.539780;2.666945;
106.578995;2.666348;
106.618202;2.665800;
106.657410;2.665315;
106.696625;2.664742;
106.735825;2.664101;
106.775024;2.663593;
106.814209;2.663076;
106.853424;2.662509;
106.892632;2.662075;
106.931847;2.661584;
106.971054;2.661108;
107.010254;2.660685;
107.049431;2.660228;
107.088638;2.659829;
107.127853;2.659470;
107.167061;2.659072;
107.206276;2.658744;
107.245483;2.658448;
107.284698;2.658102;
107.323860;2.657770;
107.363091;2.657528;
107.402283;2.657319;
107.441490;2.657112;
107.480705;2.656979;
107.519913;2.656773;
107.559128;2.656532;
107.598289;2.656389;
107.637505;2.656247;
107.676712;2.656088;
107.715927;2.655965;
107.755135;2.655823;
107.794350;2.655769;
107.833557;2.655515;
107.872719;2.655315;
107.911934;2.655202;
107.951141;2.654957;
107.990356;2.654793;
108.029564;2.654628;
108.068779;2.654291;
108.107986;2.654135;
108.147163;2.653874;
108.186363;2.653643;
108.225571;2.653401;
108.264786;2.653043;
108.303993;2.652651;
108.343208;2.652281;
108.382416;2.651937;
108.421593;2.651490;
108.460793;2.651069;
108.500008;2.650578;
108.539215;2.650212;
108.578430;2.649703;
108.617638;2.649189;
108.656845;2.648629;
108.696037;2.648064;
108.735222;2.647501;
108.774437;2.646963;
108.813644;2.646306;
108.852859;2.645799;
108.892067;2.645298;
108.931282;2.644640;
108.970451;2.644083;
109.009666;2.643537;
109.048866;2.642900;
109.088074;2.642409;
109.127289;2.641787;
109.166496;2.641292;
109.205711;2.640691;
109.244881;2.640299;
109.284111;2.639775;
109.323296;2.639249;
109.362511;2.638833;
109.401718;2.638352;
109.440926;2.637880;
109.480141;2.637509;
109.519310;2.637127;
109.558525;2.636820;
109.597725;2.636524;
109.636940;2.636113;
109.676147;2.635831;
109.715363;2.635572;
109.754570;2.635271;
109.793747;2.635107;
109.832954;2.634936;
109.872169;2.634737;
109.911369;2.634509;
109.950577;2.634304;
109.989792;2.634086;
110.028999;2.633925;
110.068176;2.633744;
110.107384;2.633544;
110.146599;2.633370;
110.185799;2.633192;
110.225006;2.633018;
110.264221;2.632818;
110.303429;2.632631;
110.342606;2.632318;
110.381813;2.632122;
110.421028;2.631884;
110.460236;2.631644;
110.499451;2.631301;
110.538651;2.630992;
110.577866;2.630655;
110.617058;2.630302;
110.656242;2.629972;
110.695457;2.629422;
110.734665;2.629092;
110.773880;2.628562;
110.813080;2.628211;
110.852295;2.627657;
110.891464;2.627111;
110.930679;2.626522;
110.969887;2.626040;
111.009102;2.625494;
111.048309;2.624840;
111.087509;2.624266;
111.126724;2.623683;
111.165894;2.623064;
111.205132;2.622385;
111.244316;2.621841;
111.283531;2.621253;
111.322739;2.620597;
111.361954;2.619972;
111.401154;2.619385;
111.440323;2.618802;
111.479538;2.618209;
111.518745;2.617669;
111.557961;2.617061;
111.597168;2.616492;
111.636383;2.615984;
111.675583;2.615416;
111.714760;2.615053;
111.753967;2.614596;
111.793182;2.613980;
111.832390;2.613621;
111.871605;2.613212;
111.910812;2.612840;
111.950012;2.612423;
111.989189;2.612019;
112.028397;2.611719;
112.067612;2.611399;
112.106819;2.611165;
112.146034;2.610839;
112.185242;2.610619;
112.224457;2.610358;
112.263618;2.610089;
112.302826;2.609773;
112.342041;2.609604;
112.381248;2.609295;
112.420464;2.609093;
112.459671;2.608836;
112.498886;2.608674;
112.538063;2.608407;
112.577263;2.608130;
112.616470;2.607915;
112.655678;2.607674;
112.694893;2.607378;
112.734100;2.607055;
112.773315;2.606731;
112.812477;2.606422;
112.851692;2.606064;
112.890900;2.605617;
112.930115;2.605207;
112.969322;2.604781;
113.008537;2.604321;
113.047745;2.603807;
113.086906;2.603338;
113.126144;2.602837;
113.165329;2.602408;
113.204544;2.601718;
113.243752;2.601144;
113.282967;2.600503;
113.322174;2.599844;
113.361351;2.599249;
113.400551;2.598576;
113.439766;2.597898;
113.478973;2.597239;
113.518181;2.596547;
113.557396;2.595915;
113.596603;2.595208;
113.635788;2.594556;
113.674980;2.593836;
113.714195;2.593121;
113.753403;2.592455;
113.792618;2.591771;
113.831825;2.591130;
113.871033;2.590477;
113.910210;2.589870;
113.949409;2.589142;
113.988625;2.588716;
114.027832;2.588081;
114.067047;2.587533;
114.106255;2.587071;
114.145470;2.586628;
114.184639;2.586072;
114.223854;2.585536;
114.263054;2.585060;
114.302269;2.584695;
114.341476;2.584395;
114.380684;2.583950;
114.419899;2.583578;
114.459068;2.583236;
114.498283;2.582927;
114.537483;2.582628;
114.576698;2.582316;
114.615906;2.581890;
114.655113;2.581618;
114.694328;2.581350;
114.733498;2.581027;
114.772713;2.580764;
114.811913;2.580413;
114.851128;2.580167;
114.890335;2.579798;
114.929550;2.579513;
114.968758;2.579165;
115.007935;2.578848;
115.047157;2.578453;
115.086342;2.578048;
115.125557;2.577724;
115.164764;2.577287;
115.203979;2.576845;
115.243187;2.576421;
115.282364;2.575913;
115.321571;2.575343;
115.360786;2.574916;
115.399986;2.574354;
115.439201;2.573809;
115.478409;2.573208;
115.517616;2.572596;
115.556808;2.571934;
115.596001;2.571350;
115.635216;2.570646;
115.674416;2.569999;
115.713631;2.569355;
115.752838;2.568640;
115.792053;2.567910;
115.831223;2.567282;
115.870430;2.566491;
115.909645;2.565780;
115.948845;2.565042;
115.988060;2.564296;
116.027267;2.563622;
116.066483;2.562845;
116.105652;2.562140;
116.144867;2.561459;
116.184074;2.560707;
116.223289;2.560091;
116.262489;2.559417;
116.301704;2.558753;
116.340912;2.558144;
116.380081;2.557512;
116.419296;2.556905;
116.458504;2.556317;
116.497719;2.555725;
116.536919;2.555285;
116.576134;2.554676;
116.615341;2.554207;
116.654518;2.553752;
116.693726;2.553295;
116.732933;2.552864;
116.772148;2.552387;
116.811348;2.551969;
116.850563;2.551560;
116.889771;2.551140;
