"Piezo Voltage (V)";"Fine In 1 (V)";
77.018799;3.021550;
77.058014;3.020910;
77.097221;3.020499;
77.136398;3.020096;
77.175606;3.019767;
77.214806;3.019308;
77.254021;3.018991;
77.293228;3.018663;
77.332443;3.018260;
77.371651;3.017866;
77.410828;3.017541;
77.450050;3.017196;
77.489250;3.016835;
77.528450;3.016509;
77.567665;3.016217;
77.606873;3.015900;
77.646080;3.015534;
77.685257;3.015284;
77.724464;3.014996;
77.763680;3.014663;
77.802879;3.014411;
77.842094;3.014119;
77.881302;3.013794;
77.920517;3.013432;
77.959686;3.013159;
77.998894;3.012938;
78.038109;3.012575;
78.077309;3.012276;
78.116524;3.012053;
78.155731;3.011687;
78.194946;3.011308;
78.234116;3.011015;
78.273331;3.010683;
78.312538;3.010360;
78.351753;3.010057;
78.390953;3.009683;
78.430161;3.009264;
78.469376;3.008935;
78.508545;3.008526;
78.547760;3.008202;
78.586967;3.007759;
78.626183;3.007311;
78.665382;3.006964;
78.704597;3.006507;
78.743805;3.006010;
78.783005;3.005566;
78.822189;3.005044;
78.861397;3.004585;
78.900612;3.004070;
78.939812;3.003594;
78.979027;3.003071;
79.018234;3.002539;
79.057411;3.001960;
79.096619;3.001415;
79.135834;3.000854;
79.175041;3.000300;
79.214241;2.999761;
79.253456;2.999189;
79.292664;2.998646;
79.331841;2.998024;
79.371063;2.997525;
79.410263;2.996896;
79.449471;2.996328;
79.488686;2.995771;
79.527885;2.995152;
79.567101;2.994629;
79.606270;2.994122;
79.645477;2.993534;
79.684692;2.992978;
79.723900;2.992496;
79.763115;2.991961;
79.802315;2.991475;
79.841530;2.990938;
79.880707;2.990480;
79.919914;2.989981;
79.959122;2.989439;
79.998329;2.988978;
80.037544;2.988492;
80.076744;2.988103;
80.115959;2.987624;
80.155128;2.987218;
80.194344;2.986812;
80.233551;2.986422;
80.272766;2.986022;
80.311974;2.985627;
80.351189;2.985268;
80.390388;2.984962;
80.429558;2.984562;
80.468773;2.984228;
80.507980;2.983960;
80.547195;2.983651;
80.586403;2.983324;
80.625618;2.983041;
80.664818;2.982749;
80.704010;2.982477;
80.743202;2.982246;
80.782417;2.981980;
80.821625;2.981649;
80.860832;2.981352;
80.900047;2.981136;
80.939247;2.980794;
80.978424;2.980577;
81.017632;2.980272;
81.056847;2.979949;
81.096054;2.979783;
81.135269;2.979460;
81.174477;2.979197;
81.213676;2.978865;
81.252853;2.978475;
81.292084;2.978179;
81.331276;2.977846;
81.370483;2.977492;
81.409698;2.977122;
81.448906;2.976771;
81.488121;2.976440;
81.527283;2.976068;
81.566498;2.975541;
81.605705;2.975169;
81.644913;2.974814;
81.684128;2.974353;
81.723335;2.973895;
81.762550;2.973383;
81.801735;2.972889;
81.840927;2.972450;
81.880135;2.971952;
81.919350;2.971403;
81.958557;2.970873;
81.997772;2.970330;
82.036980;2.969734;
82.076141;2.969212;
82.115356;2.968610;
82.154564;2.968112;
82.193779;2.967534;
82.232986;2.966967;
82.272202;2.966457;
82.311409;2.965806;
82.350586;2.965273;
82.389786;2.964682;
82.428993;2.964159;
82.468208;2.963673;
82.507416;2.963118;
82.546631;2.962525;
82.585838;2.962055;
82.625015;2.961545;
82.664215;2.961115;
82.703430;2.960552;
82.742638;2.960057;
82.781853;2.959593;
82.821060;2.959160;
82.860268;2.958588;
82.899445;2.958175;
82.938644;2.957686;
82.977859;2.957321;
83.017067;2.956930;
83.056282;2.956535;
83.095490;2.956204;
83.134705;2.955864;
83.173874;2.955520;
83.213104;2.955203;
83.252289;2.954804;
83.291496;2.954587;
83.330711;2.954276;
83.369919;2.953981;
83.409134;2.953697;
83.448303;2.953478;
83.487518;2.953198;
83.526718;2.952990;
83.565933;2.952734;
83.605141;2.952466;
83.644348;2.952141;
83.683563;2.951869;
83.722748;2.951721;
83.761948;2.951507;
83.801147;2.951223;
83.840363;2.951059;
83.879570;2.950781;
83.918785;2.950553;
83.957993;2.950229;
83.997169;2.949924;
84.036377;2.949651;
84.075577;2.949359;
84.114792;2.949036;
84.153999;2.948704;
84.193214;2.948354;
84.232422;2.948065;
84.271599;2.947646;
84.310814;2.947257;
84.350021;2.946911;
84.389221;2.946461;
84.428436;2.946047;
84.467644;2.945556;
84.506851;2.945118;
84.546028;2.944581;
84.585236;2.944052;
84.624451;2.943637;
84.663651;2.943102;
84.702866;2.942599;
84.742073;2.941962;
84.781288;2.941453;
84.820457;2.940881;
84.859665;2.940347;
84.898880;2.939778;
84.938080;2.939257;
84.977295;2.938628;
85.016502;2.938053;
85.055717;2.937480;
85.094887;2.936927;
85.134109;2.936271;
85.173309;2.935764;
85.212524;2.935195;
85.251724;2.934583;
85.290932;2.934008;
85.330147;2.933451;
85.369316;2.932953;
85.408531;2.932468;
85.447739;2.931857;
85.486954;2.931373;
85.526154;2.930819;
85.565369;2.930296;
85.604576;2.929925;
85.643761;2.929402;
85.682961;2.928859;
85.722168;2.928487;
85.761383;2.928005;
85.800583;2.927610;
85.839798;2.927155;
85.879005;2.926704;
85.918182;2.926311;
85.957390;2.925904;
85.996605;2.925502;
86.035812;2.925112;
86.075012;2.924691;
86.114227;2.924259;
86.153435;2.923837;
86.192612;2.923468;
86.231834;2.923036;
86.271034;2.922643;
86.310242;2.922322;
86.349457;2.921778;
86.388657;2.921422;
86.427872;2.921031;
86.467041;2.920562;
86.506248;2.920004;
86.545464;2.919562;
86.584671;2.919075;
86.623886;2.918464;
86.663086;2.917859;
86.702301;2.917252;
86.741470;2.916742;
86.780685;2.916084;
86.819893;2.915429;
86.859100;2.914794;
86.898315;2.914040;
86.937515;2.913272;
86.976730;2.912519;
87.015900;2.911665;
87.055115;2.910831;
87.094322;2.910067;
87.133537;2.909212;
87.172745;2.908294;
87.211960;2.907387;
87.251160;2.906432;
87.290329;2.905436;
87.329544;2.904469;
87.368752;2.903504;
87.407967;2.902535;
87.447174;2.901505;
87.486389;2.900424;
87.525589;2.899447;
87.564789;2.898406;
87.603973;2.897384;
87.643188;2.896339;
87.682396;2.895357;
87.721603;2.894308;
87.760818;2.893344;
87.800018;2.892281;
87.839195;2.891237;
87.878403;2.890256;
87.917618;2.889348;
87.956825;2.888305;
87.996040;2.887383;
88.035248;2.886421;
88.074448;2.885507;
88.113625;2.884601;
88.152855;2.883793;
88.192047;2.882929;
88.231255;2.882130;
88.270470;2.881323;
88.309677;2.880486;
88.348892;2.879746;
88.388054;2.879080;
88.427269;2.878346;
88.466476;2.877665;
88.505684;2.877001;
88.544899;2.876371;
88.584106;2.875841;
88.623322;2.875225;
88.662483;2.874604;
88.701698;2.874099;
88.740906;2.873601;
88.780121;2.873078;
88.819328;2.872658;
88.858543;2.872196;
88.897751;2.871796;
88.936913;2.871390;
88.976128;2.870956;
89.015335;2.870556;
89.054550;2.870169;
89.093758;2.869815;
89.132973;2.869486;
89.172180;2.869121;
89.211357;2.868793;
89.250557;2.868394;
89.289764;2.868024;
89.328979;2.867670;
89.368187;2.867323;
89.407402;2.867045;
89.446609;2.866676;
89.485802;2.866319;
89.524986;2.865932;
89.564201;2.865574;
89.603409;2.865269;
89.642624;2.864791;
89.681831;2.864432;
89.721039;2.864057;
89.760216;2.863701;
89.799416;2.863312;
89.838631;2.862973;
89.877838;2.862549;
89.917053;2.862160;
89.956261;2.861829;
89.995476;2.861422;
90.034645;2.861069;
90.073875;2.860700;
90.113060;2.860285;
90.152267;2.859946;
90.191483;2.859598;
90.230690;2.859191;
90.269905;2.858915;
90.309074;2.858538;
90.348289;2.858218;
90.387497;2.857965;
90.426712;2.857607;
90.465912;2.857353;
90.505119;2.857090;
90.544334;2.856884;
90.583511;2.856670;
90.622719;2.856457;
90.661926;2.856355;
90.701141;2.856157;
90.740341;2.856076;
90.779556;2.855984;
90.818764;2.855899;
90.857941;2.855813;
90.897148;2.855763;
90.936356;2.855821;
90.975571;2.855847;
91.014771;2.855871;
91.053986;2.855865;
91.093193;2.855901;
91.132370;2.856065;
91.171577;2.856152;
91.210793;2.856265;
91.250000;2.856411;
91.289200;2.856502;
91.328415;2.856675;
91.367622;2.856764;
91.406807;2.856911;
91.446007;2.857086;
91.485222;2.857198;
91.524429;2.857370;
91.563644;2.857500;
91.602844;2.857689;
91.642059;2.857779;
91.681229;2.857930;
91.720436;2.857925;
91.759651;2.858052;
91.798859;2.858154;
91.838074;2.858124;
91.877274;2.858124;
91.916489;2.858118;
91.955658;2.858113;
91.994896;2.857973;
92.034081;2.857963;
92.073296;2.857829;
92.112503;2.857635;
92.151703;2.857456;
92.190918;2.857228;
92.230087;2.856985;
92.269302;2.856696;
92.308510;2.856460;
92.347725;2.856070;
92.386932;2.855690;
92.426147;2.855363;
92.465347;2.854942;
92.504524;2.854484;
92.543732;2.853998;
92.582939;2.853597;
92.622154;2.853110;
92.661362;2.852551;
92.700577;2.851972;
92.739777;2.851475;
92.778954;2.850895;
92.818161;2.850384;
92.857376;2.849722;
92.896584;2.849144;
92.935791;2.848568;
92.975006;2.847989;
93.014206;2.847445;
93.053383;2.846920;
93.092590;2.846284;
93.131805;2.845760;
93.171013;2.845216;
93.210228;2.844583;
93.249435;2.844065;
93.288651;2.843528;
93.327812;2.843048;
93.367020;2.842486;
93.406235;2.842035;
93.445442;2.841591;
93.484657;2.841164;
93.523865;2.840691;
93.563080;2.840265;
93.602242;2.839835;
93.641457;2.839391;
93.680664;2.838949;
93.719872;2.838657;
93.759087;2.838266;
93.798294;2.837859;
93.837509;2.837518;
93.876671;2.837185;
93.915909;2.836810;
93.955093;2.836590;
93.994308;2.836232;
94.033516;2.835911;
94.072731;2.835632;
94.111938;2.835253;
94.151100;2.834967;
94.190315;2.834689;
94.229523;2.834353;
94.268738;2.834015;
94.307945;2.833692;
94.347160;2.833312;
94.386368;2.832946;
94.425552;2.832551;
94.464745;2.832173;
94.503960;2.831812;
94.543167;2.831395;
94.582375;2.830940;
94.621590;2.830503;
94.660797;2.830053;
94.699974;2.829519;
94.739174;2.828973;
94.778389;2.828418;
94.817596;2.827891;
94.856812;2.827347;
94.896019;2.826733;
94.935226;2.826088;
94.974403;2.825461;
95.013603;2.824823;
95.052818;2.824161;
95.092026;2.823454;
95.131241;2.822797;
95.170448;2.822072;
95.209663;2.821291;
95.248833;2.820618;
95.288048;2.819903;
95.327248;2.819188;
95.366455;2.818456;
95.405670;2.817731;
95.444878;2.816924;
95.484093;2.816247;
95.523262;2.815502;
95.562477;2.814896;
95.601677;2.814139;
95.640892;2.813436;
95.680099;2.812690;
95.719307;2.812022;
95.758522;2.811434;
95.797691;2.810698;
95.836914;2.810103;
95.876106;2.809526;
95.915321;2.808892;
95.954529;2.808280;
95.993744;2.807772;
96.032951;2.807137;
96.072128;2.806678;
96.111336;2.806129;
96.150536;2.805567;
96.189751;2.805174;
96.228958;2.804671;
96.268173;2.804179;
96.307381;2.803738;
96.346573;2.803279;
96.385765;2.802912;
96.424980;2.802503;
96.464180;2.802098;
96.503395;2.801688;
96.542603;2.801274;
96.581810;2.800832;
96.620987;2.800467;
96.660194;2.799993;
96.699409;2.799649;
96.738609;2.799262;
96.777824;2.798720;
96.817032;2.798337;
96.856247;2.797923;
96.895416;2.797393;
96.941574;2.796967;
96.973839;2.796418;
97.013039;2.795991;
97.052254;2.795458;
97.091461;2.794933;
97.130676;2.794342;
97.169846;2.793787;
97.209061;2.793167;
97.248268;2.792597;
97.287483;2.792045;
97.326683;2.791347;
97.365891;2.790725;
97.405106;2.790107;
97.444275;2.789321;
97.483490;2.788638;
97.522697;2.787997;
97.561913;2.787334;
97.601112;2.786538;
97.640327;2.785754;
97.679535;2.785043;
97.718712;2.784332;
97.757919;2.783558;
97.797127;2.782895;
97.836342;2.782104;
97.875542;2.781404;
97.914757;2.780726;
97.953964;2.779993;
97.993141;2.779273;
98.032349;2.778543;
98.071564;2.777885;
98.110771;2.777197;
98.149971;2.776554;
98.189186;2.775872;
98.228394;2.775251;
98.267593;2.774601;
98.306778;2.773993;
98.345993;2.773400;
98.385201;2.772824;
98.424416;2.772301;
98.463615;2.771769;
98.502831;2.771259;
98.542000;2.770789;
98.581207;2.770272;
98.620422;2.769878;
98.659630;2.769433;
98.698845;2.768915;
98.738045;2.768528;
98.777260;2.768065;
98.816429;2.767701;
98.855652;2.767349;
98.894852;2.766947;
98.934067;2.766511;
98.973274;2.766150;
99.012474;2.765771;
99.051689;2.765462;
99.090858;2.765032;
99.130074;2.764714;
99.169281;2.764356;
99.208496;2.763995;
99.247704;2.763598;
99.286919;2.763146;
99.326118;2.762781;
99.365288;2.762309;
99.404503;2.761915;
99.443710;2.761409;
99.482925;2.760962;
99.522133;2.760601;
99.561348;2.759962;
99.600548;2.759574;
99.639725;2.759027;
99.678932;2.758424;
99.718147;2.757925;
99.757355;2.757241;
99.796562;2.756718;
99.835777;2.756143;
99.874977;2.755512;
99.914154;2.754949;
99.953362;2.754275;
99.992577;2.753563;
100.031784;2.752933;
100.070999;2.752284;
100.110207;2.751624;
100.149422;2.750941;
100.188606;2.750284;
100.227791;2.749591;
100.267006;2.748923;
100.306213;2.748255;
100.345428;2.747561;
100.384636;2.747000;
100.423851;2.746250;
100.463013;2.745641;
100.502228;2.745036;
100.541435;2.744461;
100.580643;2.743813;
100.619858;2.743255;
100.659065;2.742703;
100.698280;2.742143;
100.737442;2.741583;
100.776680;2.741104;
100.815865;2.740544;
100.855080;2.740177;
100.894287;2.739661;
100.933502;2.739233;
100.972710;2.738834;
101.011871;2.738352;
101.051086;2.737932;
101.090294;2.737594;
101.129509;2.737296;
101.168716;2.736904;
101.207932;2.736467;
101.247139;2.736173;
101.286316;2.735794;
101.325516;2.735454;
101.364731;2.735178;
101.403938;2.734787;
101.443146;2.734557;
101.482361;2.734190;
101.521568;2.733899;
101.560745;2.733488;
101.599945;2.733158;
101.639160;2.732797;
101.678368;2.732406;
101.717583;2.732014;
101.756790;2.731562;
101.795998;2.731187;
101.835175;2.730694;
101.874374;2.730306;
101.913589;2.729806;
101.952797;2.729316;
101.992012;2.728855;
102.031219;2.728262;
102.070435;2.727851;
102.109612;2.727211;
102.148819;2.726548;
102.188019;2.725940;
102.227226;2.725251;
102.266441;2.724619;
102.305649;2.724000;
102.344864;2.723326;
102.384033;2.722597;
102.423248;2.721885;
102.462448;2.721212;
102.501663;2.720392;
102.540871;2.719741;
102.580078;2.718983;
102.619293;2.718195;
102.658463;2.717593;
102.697693;2.716805;
102.736877;2.716049;
102.776093;2.715314;
102.815300;2.714634;
102.854515;2.713967;
102.893723;2.713287;
102.932899;2.712606;
102.972107;2.711912;
103.011307;2.711250;
103.050522;2.710596;
103.089729;2.709998;
103.128944;2.709408;
103.168152;2.708787;
103.207329;2.708241;
103.246536;2.707725;
103.285751;2.707186;
103.324951;2.706697;
103.364166;2.706185;
103.403374;2.705738;
103.442581;2.705332;
103.481758;2.704807;
103.520966;2.704359;
103.560181;2.704031;
103.599380;2.703575;
103.638596;2.703261;
103.677803;2.702840;
103.717018;2.702535;
103.756187;2.702219;
103.795395;2.701761;
103.834610;2.701479;
103.873810;2.701030;
103.913025;2.700741;
103.952232;2.700305;
103.991447;2.699998;
104.030617;2.699641;
104.069832;2.699229;
104.109039;2.698802;
104.148254;2.698391;
104.187454;2.697922;
104.226662;2.697525;
104.265877;2.697131;
104.305046;2.696604;
104.344261;2.696177;
104.383469;2.695662;
104.422684;2.695162;
104.461884;2.694546;
104.501099;2.694040;
104.540306;2.693439;
104.579483;2.692776;
104.618706;2.692180;
104.657898;2.691593;
104.697113;2.690900;
104.736313;2.690198;
104.775528;2.689549;
104.814735;2.688888;
104.853912;2.688182;
104.893120;2.687466;
104.932335;2.686805;
104.971542;2.686190;
105.010742;2.685436;
105.049957;2.684737;
105.089165;2.684071;
105.128349;2.683326;
105.167549;2.682600;
105.206764;2.681900;
105.245972;2.681224;
105.285187;2.680578;
105.324387;2.679909;
105.363602;2.679348;
105.402771;2.678820;
105.441978;2.678121;
105.481194;2.677633;
105.520401;2.677057;
105.559616;2.676553;
105.598816;2.676040;
105.638031;2.675577;
105.677200;2.675048;
105.716415;2.674719;
105.755623;2.674254;
105.794838;2.673888;
105.834045;2.673415;
105.873245;2.673050;
105.912460;2.672665;
105.951630;2.672410;
105.990845;2.672077;
106.030052;2.671684;
106.069267;2.671433;
106.108475;2.671070;
106.147690;2.670797;
106.186890;2.670464;
106.226059;2.670223;
106.265274;2.669870;
106.304482;2.669600;
106.343697;2.669272;
106.382904;2.668969;
106.422119;2.668599;
106.461319;2.668204;
106.500496;2.667839;
106.539711;2.667496;
106.578918;2.667084;
106.618126;2.666662;
106.657333;2.666257;
106.696548;2.665722;
106.735748;2.665239;
106.774925;2.664710;
106.814133;2.664238;
106.853348;2.663572;
106.892555;2.663084;
106.931770;2.662530;
106.970978;2.661913;
107.010178;2.661342;
107.049377;2.660739;
107.088562;2.660083;
107.127777;2.659404;
107.166985;2.658760;
107.206200;2.658056;
107.245407;2.657354;
107.284622;2.656715;
107.323784;2.656036;
107.362999;2.655318;
107.402206;2.654645;
107.441414;2.654013;
107.480629;2.653280;
107.519836;2.652671;
107.559052;2.652026;
107.598213;2.651379;
107.637428;2.650808;
107.676636;2.650205;
107.715851;2.649667;
107.755058;2.649067;
107.794273;2.648572;
107.833481;2.648095;
107.872643;2.647520;
107.911858;2.647069;
107.951065;2.646651;
107.990280;2.646159;
108.029488;2.645725;
108.068703;2.645372;
108.107910;2.644996;
108.147087;2.644624;
108.186287;2.644320;
108.225494;2.643970;
108.264709;2.643677;
108.303917;2.643322;
108.343132;2.643092;
108.382339;2.642716;
108.421516;2.642440;
108.460732;2.642157;
108.499931;2.641913;
108.539139;2.641614;
108.578354;2.641402;
108.617561;2.641107;
108.656769;2.640857;
108.695946;2.640542;
108.735146;2.640260;
108.774361;2.639844;
108.813568;2.639469;
108.852783;2.639175;
108.891991;2.638839;
108.931206;2.638370;
108.970390;2.637945;
109.009590;2.637532;
109.048790;2.637091;
109.087997;2.636595;
109.127213;2.636018;
109.166420;2.635617;
109.205635;2.635053;
109.244804;2.634483;
109.284019;2.633886;
109.323219;2.633356;
109.362434;2.632692;
109.401642;2.632126;
109.440849;2.631462;
109.480064;2.630855;
109.519234;2.630237;
109.558456;2.629562;
109.597649;2.628951;
109.636864;2.628266;
109.676071;2.627552;
109.715286;2.626877;
109.754494;2.626293;
109.793671;2.625545;
109.832878;2.624949;
109.872078;2.624287;
109.911293;2.623728;
109.950500;2.623114;
109.989716;2.622564;
110.028923;2.621974;
110.068100;2.621491;
110.107307;2.620994;
110.146523;2.620464;
110.185722;2.619903;
110.224937;2.619391;
110.264145;2.618946;
110.303352;2.618611;
110.342529;2.618176;
110.381737;2.617706;
110.420952;2.617361;
110.460159;2.616966;
110.499374;2.616641;
110.538574;2.616285;
110.577789;2.615929;
110.616959;2.615590;
110.656166;2.615346;
110.695381;2.615063;
110.734589;2.614724;
110.773804;2.614450;
110.813004;2.614240;
110.852219;2.613921;
110.891411;2.613601;
110.930603;2.613410;
110.969810;2.613009;
111.009026;2.612707;
111.048233;2.612396;
111.087433;2.612067;
111.126648;2.611771;
111.165817;2.611394;
111.205032;2.610974;
111.244240;2.610593;
111.283455;2.610154;
111.322662;2.609778;
111.361877;2.609241;
111.401077;2.608683;
111.440254;2.608200;
111.479485;2.607674;
111.518669;2.607155;
111.557884;2.606577;
111.597092;2.606103;
111.636307;2.605432;
111.675507;2.604863;
111.714684;2.604176;
111.753891;2.603560;
111.793106;2.602923;
111.832314;2.602267;
111.871521;2.601599;
111.910736;2.600931;
111.949936;2.600277;
111.989113;2.599592;
112.028320;2.598954;
112.067535;2.598312;
112.106743;2.597595;
112.145958;2.596959;
112.185165;2.596296;
112.224380;2.595658;
112.263542;2.594995;
112.302750;2.594403;
112.341965;2.593814;
112.381172;2.593355;
112.420387;2.592756;
112.459595;2.592148;
112.498810;2.591686;
112.537971;2.591141;
112.577187;2.590655;
112.616394;2.590249;
112.655602;2.589755;
112.694817;2.589304;
112.734024;2.588909;
112.773239;2.588529;
112.812424;2.588091;
112.851616;2.587770;
112.890823;2.587442;
112.930038;2.587034;
112.969246;2.586739;
113.008461;2.586391;
113.047668;2.585962;
113.086830;2.585785;
113.126045;2.585446;
113.165253;2.585155;
113.204468;2.584863;
113.243675;2.584540;
113.282890;2.584190;
113.322098;2.583787;
113.361275;2.583534;
113.400497;2.583179;
113.439690;2.582855;
113.478897;2.582412;
113.518105;2.582067;
113.557320;2.581635;
113.596527;2.581139;
113.635704;2.580712;
113.674904;2.580211;
113.714119;2.579695;
113.753326;2.579278;
113.792542;2.578662;
113.831749;2.578175;
113.870956;2.577537;
113.910133;2.577006;
113.949333;2.576345;
113.988548;2.575753;
114.027756;2.575078;
114.066971;2.574400;
114.106178;2.573798;
114.145393;2.573069;
114.184563;2.572344;
114.223778;2.571688;
114.262978;2.570998;
114.302185;2.570312;
114.341400;2.569660;
114.380608;2.568895;
114.419823;2.568167;
114.458992;2.567565;
114.498207;2.566857;
114.537407;2.566147;
114.576622;2.565530;
114.615829;2.564811;
114.655045;2.564225;
114.694252;2.563597;
114.733429;2.563009;
114.772636;2.562355;
114.811836;2.561847;
114.851051;2.561278;
114.890259;2.560787;
114.929474;2.560227;
114.968681;2.559743;
115.007858;2.559336;
115.047066;2.558881;
115.086266;2.558391;
115.125481;2.558018;
115.164688;2.557619;
115.203903;2.557244;
115.243111;2.556818;
115.282288;2.556474;
115.321495;2.556149;
115.360710;2.555794;
115.399910;2.555534;
115.439125;2.555120;
115.478333;2.554754;
115.517540;2.554533;
115.556717;2.554162;
115.595924;2.553790;
115.635139;2.553475;
115.674339;2.553087;
115.713554;2.552779;
115.752762;2.552421;
115.791977;2.551902;
115.831154;2.551652;
115.870361;2.551114;
115.909569;2.550730;
115.948769;2.550281;
115.987984;2.549836;
116.027191;2.549373;
116.066406;2.548820;
116.105576;2.548307;
116.144791;2.547776;
116.183998;2.547200;
116.223213;2.546509;
116.262413;2.545852;
116.301620;2.545245;
116.340836;2.544602;
116.380005;2.543945;
116.419220;2.543225;
116.458427;2.542530;
116.497643;2.541883;
116.536842;2.541146;
116.576057;2.540425;
116.615265;2.539719;
116.654449;2.538995;
116.693649;2.538237;
116.732857;2.537509;
116.772072;2.536799;
116.811272;2.536086;
116.850487;2.535443;
116.889694;2.534723;
