"Piezo Voltage (V)";"Fine In 1 (V)";
77.018799;3.010264;
77.058014;3.009715;
77.097221;3.009229;
77.136436;3.008958;
77.175606;3.008494;
77.214806;3.008159;
77.254021;3.007928;
77.293228;3.007572;
77.332443;3.007294;
77.371651;3.006930;
77.410866;3.006704;
77.450050;3.006368;
77.489250;3.006093;
77.528450;3.005783;
77.567665;3.005452;
77.606873;3.005208;
77.646080;3.004894;
77.685295;3.004540;
77.724464;3.004288;
77.763680;3.003990;
77.802879;3.003691;
77.842094;3.003435;
77.881302;3.003066;
77.920517;3.002730;
77.959724;3.002445;
77.998894;3.002104;
78.038116;3.001776;
78.077309;3.001433;
78.116524;3.001066;
78.155731;3.000706;
78.194946;3.000374;
78.234154;2.999974;
78.273331;2.999496;
78.312538;2.999130;
78.351753;2.998691;
78.390953;2.998196;
78.430161;2.997828;
78.469376;2.997360;
78.508583;2.996890;
78.547760;2.996399;
78.586967;2.995934;
78.626183;2.995411;
78.665382;2.994924;
78.704597;2.994431;
78.743805;2.993896;
78.783020;2.993372;
78.822189;2.992867;
78.861397;2.992253;
78.900612;2.991691;
78.939812;2.991162;
78.979027;2.990565;
79.018234;2.990015;
79.057449;2.989436;
79.096619;2.988887;
79.135834;2.988282;
79.175041;2.987721;
79.214241;2.987178;
79.253456;2.986609;
79.292664;2.985986;
79.331879;2.985414;
79.371063;2.984893;
79.410263;2.984354;
79.449471;2.983736;
79.488686;2.983172;
79.527885;2.982722;
79.567101;2.982211;
79.606308;2.981664;
79.645477;2.981188;
79.684692;2.980730;
79.723900;2.980244;
79.763115;2.979711;
79.802315;2.979318;
79.841530;2.978901;
79.880737;2.978380;
79.919914;2.977978;
79.959137;2.977616;
79.998329;2.977216;
80.037544;2.976868;
80.076744;2.976524;
80.115959;2.976099;
80.155167;2.975796;
80.194344;2.975404;
80.233551;2.975066;
80.272766;2.974769;
80.311974;2.974437;
80.351189;2.974134;
80.390388;2.973790;
80.429596;2.973518;
80.468773;2.973272;
80.507980;2.972993;
80.547195;2.972687;
80.586403;2.972433;
80.625618;2.972159;
80.664818;2.971888;
80.704033;2.971607;
80.743202;2.971397;
80.782417;2.971135;
80.821625;2.970783;
80.860832;2.970482;
80.900047;2.970196;
80.939247;2.969886;
80.978462;2.969583;
81.017632;2.969265;
81.056847;2.968794;
81.096054;2.968563;
81.135269;2.968242;
81.174477;2.967785;
81.213676;2.967542;
81.252892;2.967061;
81.292084;2.966681;
81.331276;2.966277;
81.370483;2.965808;
81.409698;2.965378;
81.448906;2.964944;
81.488121;2.964514;
81.527321;2.964011;
81.566498;2.963524;
81.605705;2.963003;
81.644913;2.962514;
81.684128;2.961947;
81.723335;2.961452;
81.762550;2.960874;
81.801750;2.960381;
81.840927;2.959819;
81.880157;2.959212;
81.919350;2.958698;
81.958557;2.958086;
81.997772;2.957555;
82.036980;2.957012;
82.076180;2.956359;
82.115356;2.955823;
82.154564;2.955301;
82.193779;2.954738;
82.232986;2.954213;
82.272202;2.953605;
82.311409;2.953103;
82.350624;2.952621;
82.389786;2.952058;
82.428993;2.951550;
82.468208;2.951062;
82.507416;2.950534;
82.546631;2.950058;
82.585838;2.949625;
82.625053;2.949204;
82.664215;2.948731;
82.703430;2.948330;
82.742638;2.947879;
82.781853;2.947476;
82.821060;2.947119;
82.860268;2.946779;
82.899483;2.946487;
82.938644;2.946146;
82.977859;2.945754;
83.017067;2.945404;
83.056282;2.945217;
83.095490;2.944887;
83.134705;2.944561;
83.173912;2.944315;
83.213104;2.944028;
83.252289;2.943818;
83.291496;2.943614;
83.330711;2.943309;
83.369919;2.943050;
83.409134;2.942766;
83.448341;2.942575;
83.487518;2.942275;
83.526718;2.942065;
83.565933;2.941758;
83.605141;2.941609;
83.644348;2.941265;
83.683563;2.940962;
83.722771;2.940761;
83.761948;2.940460;
83.801170;2.940152;
83.840363;2.939813;
83.879570;2.939472;
83.918785;2.939183;
83.957993;2.938917;
83.997208;2.938446;
84.036377;2.938104;
84.075577;2.937646;
84.114792;2.937313;
84.153999;2.936882;
84.193214;2.936491;
84.232422;2.936063;
84.271637;2.935592;
84.310814;2.935136;
84.350021;2.934587;
84.389221;2.934088;
84.428436;2.933524;
84.467644;2.932983;
84.506851;2.932490;
84.546066;2.931893;
84.585236;2.931392;
84.624451;2.930836;
84.663651;2.930304;
84.702866;2.929675;
84.742073;2.929077;
84.781288;2.928564;
84.820496;2.927901;
84.859665;2.927295;
84.898880;2.926735;
84.938080;2.926149;
84.977295;2.925538;
85.016502;2.925053;
85.055717;2.924513;
85.094925;2.923961;
85.134109;2.923459;
85.173309;2.922977;
85.212524;2.922382;
85.251724;2.921883;
85.290932;2.921388;
85.330147;2.920838;
85.369354;2.920438;
85.408531;2.919986;
85.447739;2.919473;
85.486954;2.919028;
85.526154;2.918637;
85.565369;2.918150;
85.604576;2.917754;
85.643784;2.917361;
85.682961;2.916919;
85.722183;2.916522;
85.761383;2.916123;
85.800583;2.915808;
85.839798;2.915353;
85.879005;2.914978;
85.918221;2.914587;
85.957390;2.914128;
85.996605;2.913769;
86.035812;2.913341;
86.075012;2.912951;
86.114227;2.912529;
86.153435;2.912122;
86.192650;2.911657;
86.231834;2.911194;
86.271034;2.910784;
86.310242;2.910248;
86.349457;2.909703;
86.388657;2.909227;
86.427872;2.908693;
86.467079;2.908043;
86.506248;2.907481;
86.545464;2.906886;
86.584671;2.906170;
86.623886;2.905440;
86.663086;2.904673;
86.702301;2.903958;
86.741508;2.903166;
86.780685;2.902283;
86.819893;2.901386;
86.859100;2.900479;
86.898315;2.899537;
86.937515;2.898605;
86.976730;2.897586;
87.015938;2.896520;
87.055115;2.895421;
87.094322;2.894396;
87.133537;2.893263;
87.172745;2.892253;
87.211960;2.891104;
87.251160;2.889922;
87.290367;2.888684;
87.329544;2.887649;
87.368752;2.886355;
87.407967;2.885226;
87.447174;2.883976;
87.486389;2.882764;
87.525589;2.881598;
87.564804;2.880463;
87.603973;2.879277;
87.643211;2.878130;
87.682396;2.876957;
87.721603;2.875819;
87.760818;2.874727;
87.800018;2.873555;
87.839233;2.872467;
87.878403;2.871375;
87.917618;2.870313;
87.956825;2.869265;
87.996040;2.868305;
88.035248;2.867225;
88.074448;2.866269;
88.113663;2.865336;
88.152855;2.864397;
88.192047;2.863523;
88.231255;2.862581;
88.270470;2.861751;
88.309677;2.860964;
88.348892;2.860252;
88.388092;2.859480;
88.427269;2.858746;
88.466476;2.858026;
88.505684;2.857381;
88.544899;2.856686;
88.584106;2.856113;
88.623322;2.855540;
88.662521;2.854908;
88.701698;2.854311;
88.740906;2.853767;
88.780121;2.853278;
88.819328;2.852792;
88.858543;2.852234;
88.897751;2.851682;
88.936951;2.851241;
88.976128;2.850743;
89.015335;2.850304;
89.054550;2.849826;
89.093758;2.849339;
89.132973;2.848880;
89.172180;2.848426;
89.211395;2.848032;
89.250557;2.847524;
89.289764;2.847057;
89.328979;2.846629;
89.368187;2.846210;
89.407402;2.845677;
89.446609;2.845312;
89.485825;2.844796;
89.524986;2.844361;
89.564217;2.843855;
89.603409;2.843449;
89.642624;2.843045;
89.681831;2.842604;
89.721039;2.842211;
89.760254;2.841733;
89.799416;2.841297;
89.838631;2.840842;
89.877838;2.840438;
89.917053;2.840102;
89.956261;2.839716;
89.995476;2.839308;
90.034683;2.838980;
90.073875;2.838706;
90.113060;2.838393;
90.152267;2.838063;
90.191483;2.837701;
90.230690;2.837478;
90.269905;2.837211;
90.309113;2.836974;
90.348289;2.836884;
90.387497;2.836722;
90.426712;2.836574;
90.465912;2.836427;
90.505119;2.836403;
90.544334;2.836356;
90.583542;2.836365;
90.622719;2.836450;
90.661934;2.836483;
90.701141;2.836617;
90.740341;2.836729;
90.779556;2.836816;
90.818764;2.837028;
90.857979;2.837209;
90.897148;2.837338;
90.936356;2.837662;
90.975571;2.837973;
91.014771;2.838212;
91.053986;2.838541;
91.093193;2.838857;
91.132408;2.839151;
91.171577;2.839491;
91.210793;2.839892;
91.250000;2.840160;
91.289200;2.840598;
91.328415;2.840977;
91.367622;2.841352;
91.406837;2.841715;
91.446007;2.842093;
91.485222;2.842416;
91.524429;2.842756;
91.563644;2.843041;
91.602844;2.843287;
91.642059;2.843474;
91.681267;2.843721;
91.720436;2.843863;
91.759651;2.844126;
91.798859;2.844249;
91.838074;2.844313;
91.877274;2.844393;
91.916489;2.844370;
91.955696;2.844411;
91.994896;2.844394;
92.034081;2.844265;
92.073296;2.844082;
92.112503;2.843942;
92.151703;2.843730;
92.190918;2.843507;
92.230125;2.843266;
92.269302;2.842949;
92.308510;2.842723;
92.347725;2.842339;
92.386932;2.841979;
92.426147;2.841587;
92.465347;2.841187;
92.504555;2.840712;
92.543732;2.840283;
92.582954;2.839880;
92.622154;2.839290;
92.661362;2.838899;
92.700577;2.838335;
92.739777;2.837884;
92.778992;2.837438;
92.818161;2.836961;
92.857376;2.836440;
92.896584;2.835938;
92.935791;2.835552;
92.975006;2.835002;
93.014206;2.834537;
93.053421;2.834053;
93.092590;2.833578;
93.131805;2.833137;
93.171013;2.832694;
93.210228;2.832225;
93.249435;2.831868;
93.288651;2.831500;
93.327850;2.831031;
93.367020;2.830669;
93.406235;2.830289;
93.445442;2.829937;
93.484657;2.829540;
93.523865;2.829203;
93.563080;2.828874;
93.602280;2.828516;
93.641457;2.828303;
93.680664;2.827933;
93.719872;2.827680;
93.759087;2.827396;
93.798294;2.827022;
93.837509;2.826851;
93.876709;2.826531;
93.915909;2.826251;
93.955093;2.825933;
93.994308;2.825633;
94.033516;2.825308;
94.072731;2.825015;
94.111938;2.824703;
94.151138;2.824310;
94.190315;2.824064;
94.229523;2.823667;
94.268738;2.823323;
94.307945;2.822881;
94.347160;2.822467;
94.386368;2.822028;
94.425583;2.821519;
94.464745;2.821070;
94.503983;2.820625;
94.543167;2.820075;
94.582375;2.819497;
94.621590;2.818971;
94.660797;2.818373;
94.700012;2.817833;
94.739174;2.817155;
94.778389;2.816511;
94.817596;2.815885;
94.856812;2.815203;
94.896019;2.814584;
94.935226;2.813899;
94.974442;2.813184;
95.013603;2.812509;
95.052818;2.811815;
95.092026;2.811133;
95.131241;2.810357;
95.170448;2.809635;
95.209663;2.808932;
95.248871;2.808222;
95.288048;2.807472;
95.327248;2.806771;
95.366455;2.806036;
95.405670;2.805361;
95.444878;2.804745;
95.484093;2.804076;
95.523300;2.803377;
95.562477;2.802716;
95.601677;2.802087;
95.640892;2.801439;
95.680099;2.800835;
95.719307;2.800222;
95.758522;2.799670;
95.797729;2.799098;
95.836914;2.798482;
95.876106;2.797948;
95.915321;2.797431;
95.954529;2.796936;
95.993744;2.796494;
96.032951;2.796000;
96.072166;2.795558;
96.111336;2.795091;
96.150536;2.794637;
96.189751;2.794167;
96.228958;2.793730;
96.268173;2.793299;
96.307381;2.792945;
96.346596;2.792572;
96.385765;2.792145;
96.424995;2.791730;
96.464180;2.791316;
96.503395;2.790898;
96.542603;2.790433;
96.581810;2.790034;
96.621025;2.789593;
96.660194;2.789145;
96.699409;2.788711;
96.738609;2.788158;
96.777824;2.787600;
96.817032;2.787151;
96.856247;2.786645;
96.895454;2.785991;
96.941574;2.785516;
96.973839;2.784820;
97.013039;2.784254;
97.052254;2.783594;
97.091461;2.783005;
97.130676;2.782347;
97.169884;2.781682;
97.209061;2.781023;
97.248268;2.780285;
97.287483;2.779627;
97.326683;2.778865;
97.365891;2.778164;
97.405106;2.777390;
97.444313;2.776657;
97.483490;2.775965;
97.522697;2.775213;
97.561913;2.774513;
97.601112;2.773807;
97.640327;2.773006;
97.679535;2.772274;
97.718750;2.771595;
97.757919;2.770862;
97.797127;2.770047;
97.836342;2.769464;
97.875542;2.768790;
97.914757;2.768077;
97.953964;2.767429;
97.993179;2.766770;
98.032349;2.766071;
98.071564;2.765504;
98.110771;2.764898;
98.149971;2.764353;
98.189186;2.763803;
98.228394;2.763269;
98.267609;2.762744;
98.306778;2.762249;
98.346008;2.761756;
98.385201;2.761243;
98.424416;2.760842;
98.463615;2.760409;
98.502831;2.760025;
98.542038;2.759621;
98.581207;2.759229;
98.620422;2.758905;
98.659630;2.758451;
98.698845;2.758086;
98.738045;2.757715;
98.777260;2.757384;
98.816467;2.757014;
98.855652;2.756655;
98.894852;2.756348;
98.934067;2.755902;
98.973274;2.755530;
99.012474;2.755120;
99.051689;2.754747;
99.090897;2.754405;
99.130074;2.754003;
99.169281;2.753679;
99.208496;2.753213;
99.247704;2.752767;
99.286919;2.752305;
99.326118;2.751812;
99.365326;2.751385;
99.404503;2.750850;
99.443710;2.750336;
99.482925;2.749778;
99.522133;2.749175;
99.561348;2.748685;
99.600548;2.748111;
99.639763;2.747479;
99.678932;2.746902;
99.718147;2.746189;
99.757355;2.745522;
99.796562;2.744886;
99.835777;2.744211;
99.874977;2.743604;
99.914192;2.742962;
99.953362;2.742257;
99.992577;2.741619;
100.031784;2.740950;
100.070999;2.740314;
100.110207;2.739639;
100.149422;2.738982;
100.188622;2.738359;
100.227791;2.737710;
100.267014;2.737223;
100.306213;2.736552;
100.345428;2.736038;
100.384636;2.735407;
100.423851;2.734940;
100.463051;2.734383;
100.502228;2.733858;
100.541435;2.733397;
100.580643;2.732843;
100.619858;2.732414;
100.659065;2.732013;
100.698280;2.731652;
100.737480;2.731327;
100.776680;2.730884;
100.815865;2.730499;
100.855080;2.730147;
100.894287;2.729796;
100.933502;2.729518;
100.972710;2.729164;
101.011909;2.728903;
101.051086;2.728616;
101.090294;2.728339;
101.129509;2.728111;
101.168716;2.727804;
101.207932;2.727529;
101.247139;2.727220;
101.286354;2.726973;
101.325516;2.726681;
101.364731;2.726445;
101.403938;2.726101;
101.443146;2.725827;
101.482361;2.725414;
101.521568;2.725030;
101.560783;2.724658;
101.599945;2.724294;
101.639160;2.723814;
101.678368;2.723431;
101.717583;2.722935;
101.756790;2.722512;
101.795998;2.722011;
101.835213;2.721514;
101.874374;2.720968;
101.913589;2.720369;
101.952797;2.719778;
101.992012;2.719211;
102.031219;2.718599;
102.070435;2.718051;
102.109642;2.717354;
102.148819;2.716695;
102.188034;2.715932;
102.227226;2.715312;
102.266441;2.714546;
102.305649;2.713856;
102.344864;2.713169;
102.384071;2.712461;
102.423248;2.711711;
102.462448;2.711034;
102.501663;2.710279;
102.540871;2.709521;
102.580078;2.708854;
102.619293;2.708236;
102.658501;2.707506;
102.697693;2.706833;
102.736877;2.706247;
102.776093;2.705618;
102.815300;2.704968;
102.854515;2.704382;
102.893723;2.703856;
102.932938;2.703259;
102.972107;2.702657;
103.011307;2.702100;
103.050522;2.701670;
103.089729;2.701171;
103.128944;2.700726;
103.168152;2.700222;
103.207367;2.699726;
103.246536;2.699297;
103.285759;2.698896;
103.324951;2.698513;
103.364166;2.698129;
103.403374;2.697760;
103.442581;2.697339;
103.481796;2.697053;
103.520966;2.696654;
103.560181;2.696316;
103.599380;2.695934;
103.638596;2.695679;
103.677803;2.695324;
103.717018;2.694958;
103.756226;2.694668;
103.795395;2.694244;
103.834610;2.693984;
103.873810;2.693536;
103.913025;2.693186;
103.952232;2.692806;
103.991447;2.692317;
104.030655;2.691924;
104.069832;2.691459;
104.109039;2.690913;
104.148254;2.690467;
104.187454;2.689987;
104.226662;2.689480;
104.265877;2.688965;
104.305084;2.688436;
104.344261;2.687778;
104.383469;2.687207;
104.422684;2.686575;
104.461884;2.685951;
104.501099;2.685311;
104.540306;2.684624;
104.579521;2.684014;
104.618706;2.683400;
104.657898;2.682719;
104.697113;2.681990;
104.736313;2.681342;
104.775528;2.680618;
104.814735;2.679913;
104.853951;2.679223;
104.893120;2.678548;
104.932335;2.677902;
104.971542;2.677243;
105.010742;2.676642;
105.049957;2.675941;
105.089165;2.675313;
105.128380;2.674611;
105.167549;2.674043;
105.206779;2.673551;
105.245972;2.672956;
105.285187;2.672468;
105.324387;2.671918;
105.363602;2.671467;
105.402809;2.670938;
105.441978;2.670486;
105.481194;2.670076;
105.520401;2.669640;
105.559616;2.669310;
105.598816;2.668784;
105.638031;2.668478;
105.677238;2.668115;
105.716415;2.667758;
105.755623;2.667480;
105.794838;2.667187;
105.834045;2.666799;
105.873245;2.666487;
105.912460;2.666205;
105.951668;2.665964;
105.990845;2.665634;
106.030052;2.665412;
106.069267;2.665029;
106.108475;2.664742;
106.147690;2.664446;
106.186890;2.664088;
106.226097;2.663742;
106.265274;2.663431;
106.304482;2.663059;
106.343697;2.662704;
106.382904;2.662350;
106.422119;2.661873;
106.461319;2.661469;
106.500534;2.661052;
106.539711;2.660580;
106.578918;2.660082;
106.618126;2.659519;
106.657333;2.659054;
106.696548;2.658502;
106.735748;2.657909;
106.774963;2.657249;
106.814133;2.656755;
106.853348;2.656164;
106.892555;2.655565;
106.931770;2.654867;
106.970978;2.654250;
107.010178;2.653628;
107.049393;2.652971;
107.088562;2.652342;
107.127800;2.651708;
107.166985;2.651045;
107.206200;2.650370;
107.245407;2.649725;
107.284622;2.649056;
107.323822;2.648491;
107.362999;2.647876;
107.402206;2.647315;
107.441414;2.646642;
107.480629;2.646142;
107.519836;2.645619;
107.559052;2.644993;
107.598251;2.644502;
107.637428;2.644008;
107.676636;2.643557;
107.715851;2.643183;
107.755058;2.642678;
107.794273;2.642288;
107.833481;2.641901;
107.872681;2.641556;
107.911858;2.641125;
107.951065;2.640824;
107.990280;2.640528;
108.029488;2.640303;
108.068703;2.640002;
108.107910;2.639731;
108.147125;2.639408;
108.186287;2.639166;
108.225494;2.638890;
108.264709;2.638555;
108.303917;2.638371;
108.343132;2.638111;
108.382339;2.637816;
108.421555;2.637570;
108.460732;2.637285;
108.499931;2.637038;
108.539139;2.636724;
108.578354;2.636362;
108.617561;2.636067;
108.656769;2.635735;
108.695984;2.635314;
108.735146;2.634942;
108.774361;2.634558;
108.813568;2.634133;
108.852783;2.633711;
108.891991;2.633225;
108.931206;2.632771;
108.970413;2.632298;
109.009590;2.631826;
109.048813;2.631233;
109.087997;2.630646;
109.127213;2.630146;
109.166420;2.629441;
109.205635;2.628887;
109.244843;2.628321;
109.284019;2.627718;
109.323219;2.627113;
109.362434;2.626459;
109.401642;2.625756;
109.440849;2.625106;
109.480064;2.624506;
109.519272;2.623839;
109.558456;2.623245;
109.597649;2.622604;
109.636864;2.621957;
109.676071;2.621473;
109.715286;2.620880;
109.754494;2.620202;
109.793709;2.619698;
109.832878;2.619118;
109.872078;2.618594;
109.911293;2.618186;
109.950500;2.617623;
109.989716;2.617163;
110.028923;2.616678;
110.068138;2.616310;
110.107307;2.615875;
110.146523;2.615429;
110.185722;2.615053;
110.224937;2.614746;
110.264145;2.614443;
110.303352;2.614172;
110.342567;2.613837;
110.381737;2.613541;
110.420952;2.613248;
110.460159;2.612954;
110.499374;2.612669;
110.538574;2.612426;
110.577789;2.612181;
110.616997;2.611889;
110.656166;2.611701;
110.695381;2.611409;
110.734589;2.611135;
110.773804;2.610879;
110.813004;2.610637;
110.852219;2.610334;
110.891426;2.609887;
110.930603;2.609607;
110.969826;2.609251;
111.009026;2.608858;
111.048233;2.608548;
111.087433;2.608144;
111.126648;2.607732;
111.165855;2.607319;
111.205032;2.606814;
111.244240;2.606347;
111.283455;2.605820;
111.322662;2.605338;
111.361877;2.604739;
111.401077;2.604131;
111.440292;2.603634;
111.479485;2.603091;
111.518669;2.602497;
111.557884;2.601904;
111.597092;2.601254;
111.636307;2.600579;
111.675507;2.599955;
111.714722;2.599246;
111.753891;2.598629;
111.793106;2.598023;
111.832314;2.597375;
111.871521;2.596698;
111.910736;2.596084;
111.949936;2.595420;
111.989151;2.594755;
112.028320;2.594208;
112.067535;2.593640;
112.106743;2.593036;
112.145958;2.592511;
112.185165;2.591966;
112.224380;2.591483;
112.263580;2.590961;
112.302750;2.590440;
112.341965;2.590034;
112.381172;2.589467;
112.420387;2.589027;
112.459595;2.588688;
112.498810;2.588232;
112.538010;2.587833;
112.577187;2.587439;
112.616394;2.587180;
112.655602;2.586807;
112.694817;2.586530;
112.734024;2.586139;
112.773239;2.585899;
112.812439;2.585577;
112.851616;2.585295;
112.890823;2.585041;
112.930038;2.584749;
112.969246;2.584416;
113.008461;2.584173;
113.047668;2.583830;
113.086868;2.583622;
113.126045;2.583321;
113.165253;2.582994;
113.204468;2.582614;
113.243675;2.582323;
113.282890;2.581896;
113.322098;2.581471;
113.361313;2.581182;
113.400497;2.580757;
113.439690;2.580329;
113.478897;2.579849;
113.518105;2.579400;
113.557320;2.578892;
113.596527;2.578415;
113.635742;2.577775;
113.674904;2.577276;
113.714119;2.576725;
113.753326;2.576160;
113.792542;2.575590;
113.831749;2.574915;
113.870956;2.574262;
113.910172;2.573602;
113.949333;2.572939;
113.988548;2.572276;
114.027756;2.571608;
114.066971;2.570793;
114.106178;2.570205;
114.145393;2.569537;
114.184601;2.568789;
114.223778;2.568193;
114.262978;2.567576;
114.302185;2.566912;
114.341400;2.566262;
114.380608;2.565623;
114.419823;2.565014;
114.459030;2.564361;
114.498207;2.563923;
114.537407;2.563309;
114.576622;2.562714;
114.615829;2.562214;
114.655045;2.561642;
114.694252;2.561168;
114.733459;2.560742;
114.772636;2.560305;
114.811836;2.559883;
114.851051;2.559385;
114.890259;2.559029;
114.929474;2.558681;
114.968681;2.558283;
115.007896;2.557952;
115.047066;2.557607;
115.086266;2.557252;
115.125481;2.556931;
115.164688;2.556701;
115.203903;2.556310;
115.243111;2.556045;
115.282326;2.555692;
115.321510;2.555416;
115.360710;2.555144;
115.399910;2.554817;
115.439125;2.554512;
115.478333;2.554222;
115.517540;2.553830;
115.556755;2.553522;
115.595924;2.553140;
115.635139;2.552749;
115.674339;2.552369;
115.713554;2.551924;
115.752762;2.551436;
115.791977;2.550963;
115.831184;2.550514;
115.870361;2.550055;
115.909569;2.549488;
115.948769;2.548961;
115.987984;2.548396;
116.027191;2.547844;
116.066406;2.547204;
116.105614;2.546603;
116.144791;2.546014;
116.183998;2.545290;
116.223213;2.544633;
116.262413;2.543963;
116.301620;2.543330;
116.340836;2.542616;
116.380043;2.541916;
116.419220;2.541247;
116.458427;2.540555;
116.497643;2.539824;
116.536842;2.539240;
116.576057;2.538472;
116.615265;2.537835;
116.654480;2.537194;
116.693649;2.536527;
116.732857;2.535912;
116.772072;2.535259;
116.811272;2.534696;
116.850487;2.534040;
116.889694;2.533378;
