"Piezo Voltage (V)";"Fine In 1 (V)";
77.018860;2.987878;
77.058052;2.987352;
77.097260;2.986850;
77.136475;2.986507;
77.175682;2.986101;
77.214882;2.985663;
77.254097;2.985425;
77.293266;2.985075;
77.332481;2.984667;
77.371689;2.984318;
77.410904;2.984033;
77.450111;2.983661;
77.489326;2.983400;
77.528526;2.983077;
77.567703;2.982663;
77.606911;2.982384;
77.646118;2.982087;
77.685333;2.981733;
77.724541;2.981479;
77.763756;2.981207;
77.802956;2.980926;
77.842133;2.980663;
77.881340;2.980354;
77.920555;2.980077;
77.959763;2.979861;
77.998970;2.979640;
78.038185;2.979284;
78.077385;2.979084;
78.116562;2.978721;
78.155769;2.978457;
78.194984;2.978153;
78.234192;2.977812;
78.273407;2.977514;
78.312614;2.977244;
78.351830;2.976928;
78.390991;2.976592;
78.430206;2.976239;
78.469414;2.975906;
78.508621;2.975576;
78.547836;2.975197;
78.587044;2.974789;
78.626259;2.974448;
78.665421;2.974111;
78.704636;2.973578;
78.743843;2.973198;
78.783051;2.972782;
78.822266;2.972306;
78.861473;2.971862;
78.900688;2.971410;
78.939873;2.970905;
78.979065;2.970454;
79.018272;2.969916;
79.057487;2.969388;
79.096695;2.968917;
79.135910;2.968357;
79.175117;2.967750;
79.214279;2.967286;
79.253494;2.966754;
79.292702;2.966144;
79.331917;2.965604;
79.371124;2.964998;
79.410339;2.964474;
79.449547;2.963963;
79.488724;2.963369;
79.527939;2.962886;
79.567139;2.962281;
79.606346;2.961676;
79.645554;2.961112;
79.684769;2.960703;
79.723976;2.960139;
79.763153;2.959690;
79.802353;2.959194;
79.841568;2.958629;
79.880775;2.958178;
79.919991;2.957656;
79.959198;2.957183;
79.998405;2.956673;
80.037582;2.956314;
80.076782;2.955840;
80.115997;2.955420;
80.155205;2.955017;
80.194420;2.954619;
80.233627;2.954234;
80.272842;2.953842;
80.312012;2.953489;
80.351234;2.953110;
80.390427;2.952777;
80.429634;2.952478;
80.468849;2.952040;
80.508057;2.951814;
80.547272;2.951461;
80.586441;2.951251;
80.625656;2.950964;
80.664856;2.950734;
80.704071;2.950449;
80.743279;2.950129;
80.782494;2.949846;
80.821701;2.949584;
80.860886;2.949395;
80.900085;2.949126;
80.939285;2.948878;
80.978500;2.948659;
81.017708;2.948415;
81.056923;2.948107;
81.096130;2.947881;
81.135307;2.947603;
81.174515;2.947297;
81.213715;2.947048;
81.252930;2.946714;
81.292137;2.946409;
81.331352;2.946144;
81.370560;2.945825;
81.409737;2.945534;
81.448959;2.945159;
81.488159;2.944802;
81.527359;2.944450;
81.566574;2.944055;
81.605782;2.943648;
81.644989;2.943326;
81.684166;2.942847;
81.723373;2.942449;
81.762589;2.942002;
81.801788;2.941569;
81.841003;2.941066;
81.880211;2.940608;
81.919426;2.940123;
81.958595;2.939573;
81.997810;2.939079;
82.037018;2.938550;
82.076218;2.938092;
82.115433;2.937568;
82.154640;2.936924;
82.193855;2.936466;
82.233025;2.935909;
82.272240;2.935471;
82.311447;2.934909;
82.350662;2.934312;
82.389862;2.933784;
82.429070;2.933314;
82.468285;2.932708;
82.507454;2.932277;
82.546669;2.931776;
82.585876;2.931183;
82.625092;2.930674;
82.664291;2.930190;
82.703506;2.929646;
82.742714;2.929265;
82.781914;2.928776;
82.821098;2.928309;
82.860306;2.927834;
82.899521;2.927429;
82.938721;2.926937;
82.977936;2.926612;
83.017143;2.926234;
83.056320;2.925927;
83.095528;2.925497;
83.134743;2.925157;
83.173950;2.924842;
83.213150;2.924571;
83.252365;2.924299;
83.291573;2.924017;
83.330750;2.923749;
83.369972;2.923525;
83.409172;2.923270;
83.448380;2.922977;
83.487595;2.922804;
83.526794;2.922549;
83.566010;2.922366;
83.605179;2.922077;
83.644386;2.921804;
83.683601;2.921663;
83.722809;2.921479;
83.762024;2.921291;
83.801224;2.921081;
83.840439;2.920834;
83.879608;2.920646;
83.918823;2.920440;
83.958031;2.920139;
83.997246;2.919890;
84.036453;2.919605;
84.075653;2.919375;
84.114868;2.919083;
84.154037;2.918864;
84.193253;2.918453;
84.232460;2.918183;
84.271675;2.917811;
84.310883;2.917505;
84.350098;2.917065;
84.389297;2.916770;
84.428467;2.916305;
84.467682;2.915903;
84.506889;2.915536;
84.546104;2.915125;
84.585312;2.914637;
84.624527;2.914276;
84.663727;2.913616;
84.702927;2.913219;
84.742111;2.912718;
84.781326;2.912202;
84.820534;2.911720;
84.859741;2.911136;
84.898956;2.910617;
84.938156;2.910134;
84.977333;2.909594;
85.016541;2.909045;
85.055756;2.908535;
85.094963;2.907951;
85.134178;2.907481;
85.173386;2.906959;
85.212601;2.906435;
85.251762;2.905929;
85.290993;2.905420;
85.330185;2.904912;
85.369392;2.904363;
85.408607;2.904003;
85.447815;2.903563;
85.487030;2.903003;
85.526192;2.902653;
85.565407;2.902137;
85.604614;2.901731;
85.643822;2.901284;
85.683037;2.900933;
85.722244;2.900597;
85.761459;2.900177;
85.800636;2.899787;
85.839836;2.899527;
85.879044;2.899197;
85.918259;2.898886;
85.957466;2.898565;
85.996681;2.898377;
86.035889;2.898100;
86.075050;2.897813;
86.114265;2.897539;
86.153473;2.897269;
86.192688;2.897104;
86.231895;2.896782;
86.271111;2.896519;
86.310318;2.896385;
86.349495;2.896092;
86.388695;2.895891;
86.427910;2.895670;
86.467117;2.895495;
86.506325;2.895214;
86.545540;2.895018;
86.584747;2.894767;
86.623932;2.894446;
86.663124;2.894227;
86.702339;2.893920;
86.741547;2.893688;
86.780762;2.893362;
86.819969;2.893089;
86.859177;2.892715;
86.898354;2.892410;
86.937553;2.892015;
86.976768;2.891639;
87.015976;2.891278;
87.055191;2.890745;
87.094398;2.890396;
87.133614;2.889947;
87.172783;2.889494;
87.212013;2.888983;
87.251198;2.888496;
87.290405;2.887976;
87.329620;2.887465;
87.368828;2.886904;
87.408043;2.886277;
87.447212;2.885772;
87.486427;2.885195;
87.525627;2.884627;
87.564842;2.884057;
87.604050;2.883454;
87.643265;2.882794;
87.682472;2.882256;
87.721657;2.881687;
87.760857;2.881064;
87.800056;2.880500;
87.839272;2.879905;
87.878479;2.879243;
87.917694;2.878730;
87.956902;2.878124;
87.996078;2.877578;
88.035286;2.876930;
88.074486;2.876409;
88.113701;2.875851;
88.152908;2.875391;
88.192123;2.874921;
88.231331;2.874342;
88.270508;2.873896;
88.309715;2.873371;
88.348930;2.873051;
88.388130;2.872620;
88.427345;2.872197;
88.466553;2.871854;
88.505760;2.871476;
88.544937;2.871095;
88.584145;2.870793;
88.623360;2.870483;
88.662560;2.870162;
88.701775;2.869887;
88.740982;2.869577;
88.780197;2.869314;
88.819366;2.869016;
88.858574;2.868819;
88.897789;2.868570;
88.936989;2.868317;
88.976204;2.868077;
89.015411;2.867887;
89.054626;2.867599;
89.093796;2.867356;
89.133026;2.867104;
89.172218;2.866856;
89.211433;2.866606;
89.250633;2.866322;
89.289841;2.866078;
89.329056;2.865781;
89.368225;2.865519;
89.407440;2.865174;
89.446648;2.864815;
89.485863;2.864518;
89.525063;2.864119;
89.564278;2.863780;
89.603485;2.863416;
89.642685;2.863025;
89.681870;2.862574;
89.721077;2.862104;
89.760292;2.861730;
89.799492;2.861241;
89.838707;2.860778;
89.877914;2.860284;
89.917091;2.859764;
89.956299;2.859239;
89.995514;2.858764;
90.034721;2.858181;
90.073921;2.857726;
90.113136;2.857112;
90.152344;2.856461;
90.191521;2.855819;
90.230736;2.855358;
90.269943;2.854702;
90.309151;2.854156;
90.348366;2.853593;
90.387573;2.853020;
90.426788;2.852319;
90.465950;2.851894;
90.505157;2.851203;
90.544373;2.850668;
90.583580;2.850121;
90.622795;2.849571;
90.662003;2.849043;
90.701218;2.848564;
90.740379;2.848043;
90.779594;2.847575;
90.818802;2.847132;
90.858017;2.846631;
90.897224;2.846157;
90.936432;2.845641;
90.975647;2.845358;
91.014809;2.844922;
91.054039;2.844517;
91.093231;2.844139;
91.132446;2.843841;
91.171654;2.843444;
91.210869;2.843135;
91.250076;2.842857;
91.289238;2.842562;
91.328453;2.842228;
91.367661;2.841965;
91.406876;2.841699;
91.446083;2.841511;
91.485298;2.841135;
91.524506;2.840947;
91.563698;2.840715;
91.602882;2.840492;
91.642097;2.840169;
91.681305;2.839914;
91.720512;2.839686;
91.759727;2.839422;
91.798935;2.839210;
91.838112;2.838955;
91.877312;2.838677;
91.916527;2.838376;
91.955734;2.838072;
91.994949;2.837808;
92.034157;2.837413;
92.073372;2.837138;
92.112541;2.836771;
92.151764;2.836343;
92.190956;2.836014;
92.230164;2.835600;
92.269379;2.835156;
92.308586;2.834731;
92.347801;2.834237;
92.386971;2.833763;
92.426186;2.833246;
92.465385;2.832743;
92.504593;2.832195;
92.543808;2.831611;
92.583015;2.831031;
92.622231;2.830457;
92.661400;2.829926;
92.700615;2.829252;
92.739815;2.828746;
92.779030;2.828218;
92.818237;2.827544;
92.857452;2.827008;
92.896660;2.826328;
92.935829;2.825796;
92.975044;2.825190;
93.014244;2.824660;
93.053459;2.824018;
93.092667;2.823473;
93.131882;2.822859;
93.171089;2.822300;
93.210266;2.821753;
93.249474;2.821193;
93.288689;2.820708;
93.327888;2.820206;
93.367096;2.819731;
93.406311;2.819252;
93.445518;2.818758;
93.484711;2.818259;
93.523903;2.817783;
93.563118;2.817392;
93.602318;2.816928;
93.641533;2.816552;
93.680740;2.816159;
93.719948;2.815742;
93.759125;2.815417;
93.798332;2.815112;
93.837547;2.814780;
93.876747;2.814463;
93.915962;2.814142;
93.955170;2.813834;
93.994385;2.813498;
94.033554;2.813232;
94.072777;2.812892;
94.111977;2.812575;
94.151176;2.812305;
94.190392;2.811962;
94.229599;2.811709;
94.268814;2.811472;
94.307983;2.811082;
94.347198;2.810820;
94.386406;2.810470;
94.425621;2.810086;
94.464821;2.809738;
94.504028;2.809374;
94.543243;2.808943;
94.582413;2.808521;
94.621628;2.808141;
94.660835;2.807683;
94.700050;2.807197;
94.739250;2.806679;
94.778465;2.806139;
94.817673;2.805626;
94.856850;2.805078;
94.896057;2.804497;
94.935265;2.803971;
94.974480;2.803335;
95.013680;2.802707;
95.052895;2.802052;
95.092102;2.801407;
95.131279;2.800791;
95.170486;2.800112;
95.209702;2.799402;
95.248909;2.798612;
95.288124;2.798026;
95.327324;2.797354;
95.366531;2.796613;
95.405731;2.795934;
95.444916;2.795123;
95.484131;2.794471;
95.523338;2.793699;
95.562553;2.792947;
95.601753;2.792287;
95.640968;2.791540;
95.680138;2.790869;
95.719345;2.790179;
95.758560;2.789492;
95.797768;2.788801;
95.836983;2.788176;
95.876183;2.787453;
95.915398;2.786832;
95.954567;2.786157;
95.993805;2.785580;
96.032990;2.784978;
96.072205;2.784380;
96.111412;2.783798;
96.150612;2.783153;
96.189827;2.782505;
96.228996;2.781976;
96.268211;2.781467;
96.307419;2.780938;
96.346634;2.780254;
96.385841;2.779686;
96.425056;2.779245;
96.464256;2.778587;
96.503433;2.778004;
96.542641;2.777462;
96.581848;2.776804;
96.621063;2.776168;
96.660271;2.775515;
96.699486;2.774905;
96.738686;2.774273;
96.777863;2.773575;
96.817070;2.772839;
96.856285;2.772141;
96.895493;2.771409;
96.941574;2.770566;
96.973915;2.769783;
97.013115;2.768954;
97.052292;2.768133;
97.091499;2.767270;
97.130714;2.766375;
97.169922;2.765411;
97.209137;2.764503;
97.248344;2.763552;
97.287560;2.762550;
97.326736;2.761554;
97.365929;2.760595;
97.405144;2.759512;
97.444351;2.758452;
97.483566;2.757468;
97.522774;2.756332;
97.561989;2.755265;
97.601151;2.754151;
97.640366;2.752983;
97.679573;2.751921;
97.718788;2.750803;
97.757996;2.749681;
97.797203;2.748623;
97.836418;2.747556;
97.875580;2.746448;
97.914818;2.745426;
97.954002;2.744396;
97.993217;2.743358;
98.032425;2.742387;
98.071640;2.741421;
98.110847;2.740428;
98.150009;2.739568;
98.189224;2.738641;
98.228432;2.737710;
98.267647;2.736894;
98.306854;2.736085;
98.346069;2.735316;
98.385277;2.734623;
98.424454;2.733833;
98.463654;2.733114;
98.502869;2.732436;
98.542076;2.731816;
98.581284;2.731201;
98.620499;2.730637;
98.659706;2.730105;
98.698883;2.729592;
98.738083;2.729032;
98.777298;2.728641;
98.816505;2.728183;
98.855721;2.727757;
98.894928;2.727353;
98.934135;2.727025;
98.973312;2.726705;
99.012512;2.726373;
99.051727;2.725999;
99.090935;2.725774;
99.130150;2.725468;
99.169357;2.725210;
99.208572;2.724968;
99.247742;2.724694;
99.286957;2.724405;
99.326157;2.724148;
99.365364;2.723896;
99.404579;2.723658;
99.443787;2.723326;
99.483002;2.723078;
99.522171;2.722818;
99.561386;2.722580;
99.600586;2.722280;
99.639801;2.721976;
99.679008;2.721600;
99.718224;2.721352;
99.757431;2.720963;
99.796600;2.720723;
99.835831;2.720417;
99.875015;2.720073;
99.914230;2.719749;
99.953438;2.719391;
99.992653;2.719077;
100.031860;2.718719;
100.071037;2.718463;
100.110245;2.718113;
100.149445;2.717786;
100.188660;2.717464;
100.227867;2.717109;
100.267082;2.716867;
100.306290;2.716572;
100.345474;2.716355;
100.384674;2.716055;
100.423889;2.715742;
100.463089;2.715569;
100.502304;2.715355;
100.541512;2.715115;
100.580719;2.714955;
100.619896;2.714839;
100.659103;2.714715;
100.698318;2.714620;
100.737518;2.714501;
100.776733;2.714317;
100.815941;2.714330;
100.855156;2.714242;
100.894325;2.714290;
100.933540;2.714246;
100.972748;2.714229;
101.011948;2.714183;
101.051163;2.714205;
101.090370;2.714234;
101.129585;2.714307;
101.168755;2.714367;
101.207970;2.714301;
101.247177;2.714359;
101.286392;2.714330;
101.325592;2.714355;
101.364799;2.714443;
101.404015;2.714440;
101.443184;2.714416;
101.482399;2.714334;
101.521606;2.714383;
101.560822;2.714300;
101.600021;2.714253;
101.639236;2.714096;
101.678444;2.713995;
101.717621;2.713832;
101.756836;2.713676;
101.796036;2.713498;
101.835251;2.713288;
101.874451;2.713037;
101.913666;2.712750;
101.952873;2.712429;
101.992050;2.712059;
102.031258;2.711783;
102.070473;2.711407;
102.109680;2.710886;
102.148895;2.710443;
102.188095;2.709924;
102.227303;2.709436;
102.266502;2.708904;
102.305687;2.708391;
102.344902;2.707827;
102.384109;2.707242;
102.423325;2.706692;
102.462524;2.706116;
102.501740;2.705444;
102.540909;2.704761;
102.580116;2.704142;
102.619331;2.703552;
102.658539;2.702840;
102.697754;2.702195;
102.736954;2.701556;
102.776169;2.700870;
102.815338;2.700263;
102.854553;2.699612;
102.893761;2.698931;
102.932976;2.698255;
102.972183;2.697771;
103.011383;2.697196;
103.050598;2.696654;
103.089767;2.696048;
103.128983;2.695445;
103.168190;2.694982;
103.207405;2.694478;
103.246613;2.693953;
103.285828;2.693525;
103.325027;2.692991;
103.364204;2.692557;
103.403412;2.692170;
103.442619;2.691778;
103.481834;2.691387;
103.521042;2.690967;
103.560257;2.690697;
103.599457;2.690346;
103.638634;2.689985;
103.677841;2.689634;
103.717056;2.689306;
103.756264;2.689025;
103.795471;2.688803;
103.834686;2.688511;
103.873886;2.688224;
103.913063;2.687860;
103.952271;2.687588;
103.991486;2.687275;
104.030693;2.686980;
104.069908;2.686616;
104.109116;2.686206;
104.148331;2.685891;
104.187515;2.685511;
104.226700;2.685167;
104.265915;2.684756;
104.305122;2.684358;
104.344337;2.683881;
104.383545;2.683406;
104.422760;2.682878;
104.461922;2.682461;
104.501137;2.681915;
104.540344;2.681465;
104.579559;2.680867;
104.618767;2.680252;
104.657974;2.679731;
104.697189;2.679099;
104.736351;2.678550;
104.775581;2.677941;
104.814774;2.677287;
104.853989;2.676694;
104.893196;2.675977;
104.932411;2.675361;
104.971619;2.674650;
105.010780;2.674021;
105.049995;2.673402;
105.089203;2.672692;
105.128418;2.672078;
105.167625;2.671402;
105.206841;2.670741;
105.246048;2.670182;
105.285225;2.669525;
105.324425;2.668971;
105.363640;2.668414;
105.402847;2.667885;
105.442055;2.667257;
105.481270;2.666747;
105.520477;2.666298;
105.559654;2.665797;
105.598854;2.665350;
105.638069;2.664912;
105.677277;2.664437;
105.716492;2.664094;
105.755699;2.663713;
105.794907;2.663383;
105.834084;2.663087;
105.873283;2.662668;
105.912498;2.662365;
105.951706;2.662042;
105.990921;2.661803;
106.030128;2.661469;
106.069344;2.661226;
106.108528;2.660959;
106.147728;2.660728;
106.186928;2.660522;
106.226135;2.660203;
106.265350;2.659948;
106.304558;2.659707;
106.343773;2.659423;
106.382942;2.659220;
106.422157;2.658923;
106.461357;2.658631;
106.500572;2.658209;
106.539780;2.657906;
106.578995;2.657629;
106.618202;2.657175;
106.657372;2.656788;
106.696602;2.656371;
106.735786;2.655975;
106.775002;2.655465;
106.814209;2.655021;
106.853424;2.654518;
106.892632;2.654094;
106.931808;2.653522;
106.971016;2.652957;
107.010216;2.652429;
107.049431;2.651783;
107.088638;2.651191;
107.127853;2.650670;
107.167061;2.649992;
107.206238;2.649394;
107.245445;2.648781;
107.284660;2.648143;
107.323860;2.647567;
107.363075;2.647000;
107.402283;2.646317;
107.441490;2.645663;
107.480667;2.645126;
107.519875;2.644562;
107.559090;2.643927;
107.598289;2.643308;
107.637505;2.642747;
107.676712;2.642206;
107.715927;2.641740;
107.755096;2.641239;
107.794312;2.640662;
107.833519;2.640223;
107.872719;2.639751;
107.911934;2.639353;
107.951141;2.638925;
107.990356;2.638637;
108.029533;2.638206;
108.068741;2.637890;
108.107948;2.637512;
108.147163;2.637159;
108.186363;2.636887;
108.225571;2.636569;
108.264786;2.636268;
108.303955;2.636017;
108.343170;2.635787;
108.382378;2.635549;
108.421593;2.635288;
108.460793;2.635130;
108.500008;2.634844;
108.539215;2.634696;
108.578392;2.634421;
108.617615;2.634223;
108.656807;2.633943;
108.696022;2.633707;
108.735222;2.633420;
108.774437;2.633205;
108.813644;2.632946;
108.852821;2.632593;
108.892029;2.632282;
108.931244;2.631957;
108.970451;2.631533;
109.009666;2.631172;
109.048866;2.630812;
109.088074;2.630372;
109.127251;2.630022;
109.166458;2.629594;
109.205673;2.629010;
109.244881;2.628544;
109.284096;2.628038;
109.323296;2.627434;
109.362511;2.626897;
109.401680;2.626362;
109.440887;2.625763;
109.480103;2.625178;
109.519310;2.624680;
109.558525;2.624052;
109.597725;2.623407;
109.636940;2.622852;
109.676109;2.622202;
109.715324;2.621624;
109.754532;2.621029;
109.793747;2.620368;
109.832954;2.619850;
109.872169;2.619228;
109.911369;2.618611;
109.950539;2.618028;
109.989754;2.617508;
110.028961;2.616960;
110.068176;2.616497;
110.107384;2.615967;
110.146599;2.615512;
110.185799;2.615069;
110.224976;2.614653;
110.264183;2.614178;
110.303391;2.613736;
110.342606;2.613338;
110.381813;2.612960;
110.421028;2.612678;
110.460236;2.612316;
110.499413;2.612028;
110.538635;2.611784;
110.577827;2.611371;
110.617035;2.611170;
110.656242;2.610914;
110.695457;2.610630;
110.734665;2.610420;
110.773842;2.610254;
110.813042;2.609929;
110.852257;2.609683;
110.891464;2.609426;
110.930679;2.609203;
110.969887;2.609042;
111.009102;2.608768;
111.048279;2.608493;
111.087471;2.608196;
111.126686;2.607903;
111.165894;2.607561;
111.205109;2.607211;
111.244316;2.606977;
111.283531;2.606555;
111.322701;2.606188;
111.361916;2.605772;
111.401115;2.605393;
111.440323;2.604903;
111.479538;2.604491;
111.518745;2.603955;
111.557961;2.603414;
111.597130;2.602937;
111.636345;2.602470;
111.675545;2.601872;
111.714760;2.601313;
111.753967;2.600745;
111.793182;2.600157;
111.832390;2.599489;
111.871567;2.598860;
111.910774;2.598252;
111.949974;2.597620;
111.989189;2.596977;
112.028397;2.596359;
112.067612;2.595728;
112.106819;2.595085;
112.145996;2.594460;
112.185204;2.593918;
112.224419;2.593285;
112.263618;2.592735;
112.302826;2.592111;
112.342041;2.591573;
112.381248;2.591043;
112.420425;2.590559;
112.459641;2.590050;
112.498848;2.589547;
112.538048;2.589065;
112.577263;2.588593;
112.616470;2.588120;
112.655678;2.587750;
112.694855;2.587392;
112.734062;2.586987;
112.773277;2.586556;
112.812477;2.586231;
112.851692;2.585923;
112.890900;2.585661;
112.930115;2.585335;
112.969299;2.585072;
113.008499;2.584773;
113.047707;2.584580;
113.086906;2.584306;
113.126122;2.584068;
113.165329;2.583843;
113.204544;2.583438;
113.243713;2.583218;
113.282928;2.582933;
113.322136;2.582680;
113.361351;2.582417;
113.400551;2.582139;
113.439766;2.581766;
113.478973;2.581471;
113.518143;2.581171;
113.557358;2.580712;
113.596565;2.580384;
113.635780;2.579952;
113.674980;2.579590;
113.714195;2.579128;
113.753403;2.578697;
113.792580;2.578176;
113.831787;2.577675;
113.870995;2.577204;
113.910210;2.576620;
113.949409;2.576061;
113.988625;2.575421;
114.027832;2.574840;
114.067009;2.574176;
114.106216;2.573631;
114.145432;2.572964;
114.184639;2.572255;
114.223854;2.571627;
114.263054;2.570954;
114.302269;2.570391;
114.341438;2.569689;
114.380653;2.568945;
114.419861;2.568306;
114.459068;2.567685;
114.498283;2.567077;
114.537483;2.566442;
114.576698;2.565880;
114.615868;2.565267;
114.655083;2.564621;
114.694290;2.564050;
114.733498;2.563438;
114.772713;2.562949;
114.811913;2.562400;
114.851128;2.561775;
114.890320;2.561366;
114.929512;2.560911;
114.968719;2.560460;
115.007935;2.560011;
115.047142;2.559627;
115.086342;2.559289;
115.125557;2.558965;
115.164726;2.558522;
115.203941;2.558155;
115.243149;2.557913;
115.282364;2.557601;
115.321571;2.557211;
115.360786;2.556943;
115.399986;2.556701;
115.439163;2.556430;
115.478371;2.556105;
115.517578;2.555777;
115.556793;2.555556;
115.596001;2.555271;
115.635216;2.554926;
115.674416;2.554655;
115.713593;2.554319;
115.752800;2.553985;
115.792015;2.553656;
115.831223;2.553333;
115.870430;2.552893;
115.909645;2.552492;
115.948845;2.552152;
115.988022;2.551698;
116.027229;2.551191;
116.066444;2.550740;
116.105652;2.550224;
116.144867;2.549660;
116.184074;2.549112;
116.223289;2.548577;
116.262451;2.548003;
116.301659;2.547391;
116.340874;2.546816;
116.380081;2.546183;
116.419296;2.545535;
116.458504;2.544869;
116.497719;2.544243;
116.536880;2.543607;
116.576096;2.542893;
116.615303;2.542257;
116.654518;2.541567;
116.693726;2.540891;
116.732933;2.540196;
116.772148;2.539520;
116.811333;2.538900;
116.850525;2.538282;
116.889732;2.537500;
